#!/usr/bin/env python
#-*- coding:utf-8 -*-
""" 此程序用于三线式调温白菜白光的曲线分析和电阻网络阻值选取。
    因为计算推荐的组合值时计算量非常大，用cython实现是为了更好的效率
    Author: cdhigh
"""

import cython
from libc.stdlib cimport malloc, free

#根据给定的电压和电位器阻值和希望的最高温度最低温度范围，计算出线性最好的几个电阻组合
#返回一个[VCC,RT,R8,R9,R10,tempList,diffLinear]的列表
cpdef list BestChoices(float VCC, float RT, float fR8, float fR9, float fR10, float fminTemp, float fmaxTemp):
    cdef:
        list minTemp, maxTemp, choices, tempList
        float* R8
        float* R9
        float* R10
        float tR8, tR9, tR10
        float minTempThresholdLow, minTempThresholdHigh, maxTempThresholdLow, maxTepmThresholdHigh
        int i, numR8, idxR8, numR9, idxR9, numR10, idxR10
        float Rdown, Rup, minVref, maxVref, tMin, tMax
        
    cdef float* Resistors = [1.0,1.1,1.2,1.3,1.5,1.6,1.8,2.0,2.2,2.4,2.7,3.0,3.3,
        3.6,3.9,4.3,4.7,5.1,5.6,6.2,6.8,7.5,8.2,9.1] #标准阻值序列
    
    #对于缺少的阻值，预先提供一个待选列表
    if fR8 < 0:        
        R8 = <float *> malloc(24 * 4 * cython.sizeof(float))
        if R8 is NULL:
            raise MemoryError()
        for i in range(24):
            R8[i] = Resistors[i] * 100
        for i in range(24):
            R8[i+24] = Resistors[i] * 1000
        for i in range(24):
            R8[i+48] = Resistors[i] * 10000
        for i in range(24):
            R8[i+72] = Resistors[i] * 100000
        numR8 = 24 * 4
    else:
        R8 = &fR8
        numR8 = 1
    if fR9 < 0:
        R9 = <float *> malloc(24 * 3 * cython.sizeof(float))
        if R9 is NULL:
            raise MemoryError()
        for i in range(24):
            R9[i] = Resistors[i]
        for i in range(24):
            R9[i+24] = Resistors[i] * 10
        for i in range(24):
            R9[i+48] = Resistors[i] * 100
        numR9 = 24 * 3
    else:
        R9 = &fR9
        numR9 = 1
    if fR10 < 0:
        R10 = <float *> malloc(24 * 4 * cython.sizeof(float))
        if R10 is NULL:
            raise MemoryError()
        for i in range(24):
            R10[i] = Resistors[i] * 100
        for i in range(24):
            R10[i+24] = Resistors[i] * 1000
        for i in range(24):
            R10[i+48] = Resistors[i] * 10000
        for i in range(24):
            R10[i+72] = Resistors[i] * 100000
        numR10 = 24 * 4
    else:
        R10 = &fR10
        numR10 = 1
    if fminTemp < 0: #温度的容忍范围为正负50度
        minTemp = [150.0, 200.0]
    else:
        minTemp = [fminTemp]
    if fmaxTemp < 0:
        maxTemp = [280]
    else:
        maxTemp = [fmaxTemp]
    
    choices = [] #符合条件的组合
    minTempThresholdLow = minTemp[0] - 50.0
    minTempThresholdHigh = minTemp[-1] + 50.0
    maxTempThresholdLow = maxTemp[0] - 20.0
    maxTepmThresholdHigh = maxTemp[-1] + 20.0
    #循环的嵌套再嵌套，变量名的前缀t表示test，待测
    #为了效率，将CalTempMin()拆开，填充到此循环中
    for idxR9 in range(numR9):
        tR9 = R9[idxR9]
        
        for idxR8 in range(numR8):
            tR8 = R8[idxR8]
            Rdown = (tR8 * tR9) / (tR8 + tR9)
            for idxR10 in range(numR10):
                tR10 = R10[idxR10] #计算最低温度
                minVref = VCC * Rdown / (Rdown + tR10)
                if 0.0 <= minVref <= 0.047533:
                    tMin = BufTbl_VtoT_N[int(minVref / 0.000005)]
                else:
                    continue
                    
                #判断温度范围
                if not (minTempThresholdLow <= tMin <= minTempThresholdHigh):
                    continue
                
                #计算最高温度
                Rup = (tR8 * tR10) / (tR8 + tR10)
                maxVref = VCC * tR9 / (tR9 + Rup)
                #print('R8:%.1f,R9:%.1f,R10:%.1f,minV:%.3f, maxV:%.3f' % (tR8,tR9,tR10,minVref, maxVref))
                if 0.0 <= maxVref <= 0.047533:
                    tMax = BufTbl_VtoT_N[int(maxVref / 0.000005)]
                else:
                    continue
                
                if tMax >= maxTempThresholdLow:
                    tempList = CalT12TempList(VCC, RT, tR8, tR9, tR10)
                    diffLinear = CalDiffLinear(tempList)
                    choices.append((VCC, RT, tR8, tR9, tR10, tempList, diffLinear))
    
    if numR8 > 1:
        free(R8)
    if numR9 > 1:
        free(R9)
    if numR10 > 1:
        free(R10)
    return choices

#计算一个温度系列的线性偏差，也就是离理想直线最远的距离
cpdef float CalDiffLinear(list tList):
    cdef list tDotList
    cdef float startX, startY, endX, endY
    cdef float a, b, c, maxDistance, h, s, area
    
    #排序的根据是实际曲线和理想曲线直接的最大垂直距离
    #将温度系列转为一系列的“笛卡尔坐标系二维点”
    tDotList = list(zip(list(range(0, len(tList))), tList))
    startX, startY = tDotList[0]
    endX, endY = tDotList[-1]
    a = DistanceDotToDot(startX, startY, endX, endY)
    maxDistance = -1.0
    for xp,yp in tDotList[1:-1]:
        b = DistanceDotToDot(startX, startY, xp, yp) #点到线段起点距离
        c = DistanceDotToDot(endX, endY, xp, yp) #点到线段终点距离
        s = float(a + b + c) / 2 #半周长
        area = s * (s - a) * (s - b) * (s - c)
        s = (area if area > 0.0 else 0.0) ** 0.5 #海伦公式求面积
        
        #则根据三角形另一个面积算法：底*高/2，三角形的高为:
        h = 2 * s / a
        if h > maxDistance:
            maxDistance = h
    return maxDistance
    
#计算两个点的距离
cdef float DistanceDotToDot(float x1, float y1, float x2, float y2):
    cdef float l1, l2
    l1 = x1 - x2
    l2 = y1 - y2
    return (l1 * l1 + l2 * l2) ** 0.5
    
#判断一个点到线段的距离，需要预先保证点到线段的投影在线段上
cpdef float DistanceDotToLine(float x1, float y1, float x2, float y2, float xp, float yp):
    cdef float a, b, c, s, area
    a = DistanceDotToDot(x1, y1, x2, y2) #线段长度
    b = DistanceDotToDot(x1, y1, xp, yp) #点到线段起点距离
    c = DistanceDotToDot(x2, y2, xp, yp) #点到线段终点距离
    s = float(a + b + c) / 2 #半周长
    area = s * (s - a) * (s - b) * (s - c)
    s = (area if area > 0.0 else 0.0) ** 0.5 #海伦公式求面积
    
    #则根据三角形另一个面积算法：底*高/2，三角形的高为:
    return 2 * s / a

    
#根据输入的电压和电阻阻值，将电位器从最小到最大按1%步进时各档的热电偶对应温度值计算出来，
#返回一个包含101个元素的列表
cpdef list CalT12TempList(float VCC, float Rt, float R8, float R9, float R10):
    cdef list VrefList
    VrefList = CalVrefList(VCC, Rt, R8, R9, R10)
    return list(map(N_VtoT, VrefList))
    
#根据输入的电压和电阻阻值，将电位器从最小到最大步进1%的各档参考电压计算出来，
#返回一个包含101个元素的列表
#RTStep是电位器从0到100的步进
cpdef list CalVrefList(float VCC, float Rt, float R8, float R9, float R10):
    cdef list VrefList
    cdef float Rdown, Rup, Rt1, Rt2, RSumProduct, Vref
    cdef int pos
    
    VrefList = []
    Rdown = Rup = 0.0 #分别为串并联后的上电阻和下电阻
    pos = 0
    for pos in range(0, 101):
        Rt1 = (Rt * pos) / 100 #电位器中点到地电阻
        Rt2 = Rt - Rt1
        if Rt1 == 0:
            Rdown = (R8 * R9) / (R8 + R9)
            Rup = R10
        elif Rt2 == 0:
            Rdown = R9
            Rup = (R8 * R10) / (R8 + R10)
        else:
            RSumProduct = Rt1 * R8 + R8 * Rt2 + Rt1 * Rt2
            Rw1 = RSumProduct / Rt1
            Rw2 = RSumProduct / Rt2
            Rdown = Rw2 * R9 / (Rw2 + R9)
            Rup = Rw1 * R10 / (Rw1 + R10)
        
        Vref = VCC * Rdown / (Rdown + Rup)
        VrefList.append(Vref)
        
    if pos < 100: #如果缺失了终点，则补上
        Rdown = R9
        Rup = (R8 * R10) / (R8 + R10)
        Vref = VCC * Rdown / (Rdown + Rup)
        VrefList.append(Vref)
        
    return VrefList

cpdef float N_VtoT(float Vref):
    if 0.0 <= Vref <= 0.047533:
        return BufTbl_VtoT_N[int(Vref / 0.000005)]
    elif Vref > 0.047533:
        return 1300.0
    else:
        return 0.0

#简单的按照一个常量（0.0157mV/℃）转换电压到温度，（假定室温为0度），Vref单位为“伏”
#此函数仅是简化计算，很不准确，建议使用N_VtoT()代替
cpdef float N_VtoT_Linear(float Vref):
    return Vref * 1000 / 0.0157

#为了取巧，使用N_VtoT()预先从0mV开始按0.005mV的步进将温度值计算出来了，到时直接查表即可
cdef float* BufTbl_VtoT_N = [
0.0, 0.2, 0.4, 0.6, 0.8, 1.0, 1.2, 1.4, 1.5, 1.7, 1.9, 2.1, 
2.3, 2.5, 2.7, 2.9, 3.1, 3.3, 3.5, 3.7, 3.9, 4.1, 4.2, 4.4, 
4.6, 4.8, 5.0, 5.2, 5.4, 5.6, 5.8, 6.0, 6.2, 6.4, 6.5, 6.7, 
6.9, 7.1, 7.3, 7.5, 7.7, 7.9, 8.1, 8.3, 8.5, 8.7, 8.8, 9.0, 
9.2, 9.4, 9.6, 9.8, 10.0, 10.2, 10.4, 10.6, 10.7, 10.9, 11.1, 11.3, 
11.5, 11.7, 11.9, 12.1, 12.3, 12.5, 12.7, 12.8, 13.0, 13.2, 13.4, 13.6, 
13.8, 14.0, 14.2, 14.4, 14.5, 14.7, 14.9, 15.1, 15.3, 15.5, 15.7, 15.9, 
16.1, 16.3, 16.4, 16.6, 16.8, 17.0, 17.2, 17.4, 17.6, 17.8, 17.9, 18.1, 
18.3, 18.5, 18.7, 18.9, 19.1, 19.3, 19.5, 19.6, 19.8, 20.0, 20.2, 20.4, 
20.6, 20.8, 21.0, 21.1, 21.3, 21.5, 21.7, 21.9, 22.1, 22.3, 22.5, 22.6, 
22.8, 23.0, 23.2, 23.4, 23.6, 23.8, 24.0, 24.1, 24.3, 24.5, 24.7, 24.9, 
25.1, 25.3, 25.5, 25.6, 25.8, 26.0, 26.2, 26.4, 26.6, 26.8, 26.9, 27.1, 
27.3, 27.5, 27.7, 27.9, 28.1, 28.2, 28.4, 28.6, 28.8, 29.0, 29.2, 29.4, 
29.5, 29.7, 29.9, 30.1, 30.3, 30.5, 30.7, 30.8, 31.0, 31.2, 31.4, 31.6, 
31.8, 31.9, 32.1, 32.3, 32.5, 32.7, 32.9, 33.1, 33.2, 33.4, 33.6, 33.8, 
34.0, 34.2, 34.3, 34.5, 34.7, 34.9, 35.1, 35.3, 35.5, 35.6, 35.8, 36.0, 
36.2, 36.4, 36.6, 36.7, 36.9, 37.1, 37.3, 37.5, 37.7, 37.8, 38.0, 38.2, 
38.4, 38.6, 38.8, 38.9, 39.1, 39.3, 39.5, 39.7, 39.9, 40.0, 40.2, 40.4, 
40.6, 40.8, 40.9, 41.1, 41.3, 41.5, 41.7, 41.9, 42.0, 42.2, 42.4, 42.6, 
42.8, 43.0, 43.1, 43.3, 43.5, 43.7, 43.9, 44.0, 44.2, 44.4, 44.6, 44.8, 
44.9, 45.1, 45.3, 45.5, 45.7, 45.9, 46.0, 46.2, 46.4, 46.6, 46.8, 46.9, 
47.1, 47.3, 47.5, 47.7, 47.8, 48.0, 48.2, 48.4, 48.6, 48.8, 48.9, 49.1, 
49.3, 49.5, 49.7, 49.8, 50.0, 50.2, 50.4, 50.6, 50.7, 50.9, 51.1, 51.3, 
51.5, 51.6, 51.8, 52.0, 52.2, 52.4, 52.5, 52.7, 52.9, 53.1, 53.2, 53.4, 
53.6, 53.8, 54.0, 54.1, 54.3, 54.5, 54.7, 54.9, 55.0, 55.2, 55.4, 55.6, 
55.8, 55.9, 56.1, 56.3, 56.5, 56.6, 56.8, 57.0, 57.2, 57.4, 57.5, 57.7, 
57.9, 58.1, 58.3, 58.4, 58.6, 58.8, 59.0, 59.1, 59.3, 59.5, 59.7, 59.9, 
60.0, 60.2, 60.4, 60.6, 60.7, 60.9, 61.1, 61.3, 61.5, 61.6, 61.8, 62.0, 
62.2, 62.3, 62.5, 62.7, 62.9, 63.0, 63.2, 63.4, 63.6, 63.8, 63.9, 64.1, 
64.3, 64.5, 64.6, 64.8, 65.0, 65.2, 65.3, 65.5, 65.7, 65.9, 66.1, 66.2, 
66.4, 66.6, 66.8, 66.9, 67.1, 67.3, 67.5, 67.6, 67.8, 68.0, 68.2, 68.3, 
68.5, 68.7, 68.9, 69.0, 69.2, 69.4, 69.6, 69.7, 69.9, 70.1, 70.3, 70.4, 
70.6, 70.8, 71.0, 71.1, 71.3, 71.5, 71.7, 71.8, 72.0, 72.2, 72.4, 72.5, 
72.7, 72.9, 73.1, 73.2, 73.4, 73.6, 73.8, 73.9, 74.1, 74.3, 74.5, 74.6, 
74.8, 75.0, 75.2, 75.3, 75.5, 75.7, 75.9, 76.0, 76.2, 76.4, 76.6, 76.7, 
76.9, 77.1, 77.3, 77.4, 77.6, 77.8, 77.9, 78.1, 78.3, 78.5, 78.6, 78.8, 
79.0, 79.2, 79.3, 79.5, 79.7, 79.9, 80.0, 80.2, 80.4, 80.5, 80.7, 80.9, 
81.1, 81.2, 81.4, 81.6, 81.8, 81.9, 82.1, 82.3, 82.4, 82.6, 82.8, 83.0, 
83.1, 83.3, 83.5, 83.7, 83.8, 84.0, 84.2, 84.3, 84.5, 84.7, 84.9, 85.0, 
85.2, 85.4, 85.5, 85.7, 85.9, 86.1, 86.2, 86.4, 86.6, 86.7, 86.9, 87.1, 
87.3, 87.4, 87.6, 87.8, 87.9, 88.1, 88.3, 88.5, 88.6, 88.8, 89.0, 89.1, 
89.3, 89.5, 89.7, 89.8, 90.0, 90.2, 90.3, 90.5, 90.7, 90.9, 91.0, 91.2, 
91.4, 91.5, 91.7, 91.9, 92.0, 92.2, 92.4, 92.6, 92.7, 92.9, 93.1, 93.2, 
93.4, 93.6, 93.7, 93.9, 94.1, 94.3, 94.4, 94.6, 94.8, 94.9, 95.1, 95.3, 
95.4, 95.6, 95.8, 96.0, 96.1, 96.3, 96.5, 96.6, 96.8, 97.0, 97.1, 97.3, 
97.5, 97.6, 97.8, 98.0, 98.2, 98.3, 98.5, 98.7, 98.8, 99.0, 99.2, 99.3, 
99.5, 99.7, 99.8, 100.0, 100.2, 100.4, 100.5, 100.7, 100.9, 101.0, 101.2, 101.4, 
101.5, 101.7, 101.9, 102.0, 102.2, 102.4, 102.5, 102.7, 102.9, 103.0, 103.2, 103.4, 
103.5, 103.7, 103.9, 104.1, 104.2, 104.4, 104.6, 104.7, 104.9, 105.1, 105.2, 105.4, 
105.6, 105.7, 105.9, 106.1, 106.2, 106.4, 106.6, 106.7, 106.9, 107.1, 107.2, 107.4, 
107.6, 107.7, 107.9, 108.1, 108.2, 108.4, 108.6, 108.7, 108.9, 109.1, 109.2, 109.4, 
109.6, 109.7, 109.9, 110.1, 110.2, 110.4, 110.6, 110.7, 110.9, 111.1, 111.2, 111.4, 
111.6, 111.7, 111.9, 112.1, 112.2, 112.4, 112.6, 112.7, 112.9, 113.1, 113.2, 113.4, 
113.6, 113.7, 113.9, 114.1, 114.2, 114.4, 114.6, 114.7, 114.9, 115.1, 115.2, 115.4, 
115.6, 115.7, 115.9, 116.0, 116.2, 116.4, 116.5, 116.7, 116.9, 117.0, 117.2, 117.4, 
117.5, 117.7, 117.9, 118.0, 118.2, 118.4, 118.5, 118.7, 118.9, 119.0, 119.2, 119.3, 
119.5, 119.7, 119.8, 120.0, 120.2, 120.3, 120.5, 120.7, 120.8, 121.0, 121.2, 121.3, 
121.5, 121.7, 121.8, 122.0, 122.1, 122.3, 122.5, 122.6, 122.8, 123.0, 123.1, 123.3, 
123.5, 123.6, 123.8, 124.0, 124.1, 124.3, 124.4, 124.6, 124.8, 124.9, 125.1, 125.3, 
125.4, 125.6, 125.8, 125.9, 126.1, 126.2, 126.4, 126.6, 126.7, 126.9, 127.1, 127.2, 
127.4, 127.5, 127.7, 127.9, 128.0, 128.2, 128.4, 128.5, 128.7, 128.9, 129.0, 129.2, 
129.3, 129.5, 129.7, 129.8, 130.0, 130.2, 130.3, 130.5, 130.6, 130.8, 131.0, 131.1, 
131.3, 131.5, 131.6, 131.8, 131.9, 132.1, 132.3, 132.4, 132.6, 132.8, 132.9, 133.1, 
133.2, 133.4, 133.6, 133.7, 133.9, 134.1, 134.2, 134.4, 134.5, 134.7, 134.9, 135.0, 
135.2, 135.3, 135.5, 135.7, 135.8, 136.0, 136.2, 136.3, 136.5, 136.6, 136.8, 137.0, 
137.1, 137.3, 137.4, 137.6, 137.8, 137.9, 138.1, 138.3, 138.4, 138.6, 138.7, 138.9, 
139.1, 139.2, 139.4, 139.5, 139.7, 139.9, 140.0, 140.2, 140.3, 140.5, 140.7, 140.8, 
141.0, 141.1, 141.3, 141.5, 141.6, 141.8, 142.0, 142.1, 142.3, 142.4, 142.6, 142.8, 
142.9, 143.1, 143.2, 143.4, 143.6, 143.7, 143.9, 144.0, 144.2, 144.4, 144.5, 144.7, 
144.8, 145.0, 145.2, 145.3, 145.5, 145.6, 145.8, 146.0, 146.1, 146.3, 146.4, 146.6, 
146.8, 146.9, 147.1, 147.2, 147.4, 147.6, 147.7, 147.9, 148.0, 148.2, 148.4, 148.5, 
148.7, 148.8, 149.0, 149.1, 149.3, 149.5, 149.6, 149.8, 149.9, 150.1, 150.3, 150.4, 
150.6, 150.7, 150.9, 151.1, 151.2, 151.4, 151.5, 151.7, 151.9, 152.0, 152.2, 152.3, 
152.5, 152.6, 152.8, 153.0, 153.1, 153.3, 153.4, 153.6, 153.8, 153.9, 154.1, 154.2, 
154.4, 154.5, 154.7, 154.9, 155.0, 155.2, 155.3, 155.5, 155.7, 155.8, 156.0, 156.1, 
156.3, 156.4, 156.6, 156.8, 156.9, 157.1, 157.2, 157.4, 157.6, 157.7, 157.9, 158.0, 
158.2, 158.3, 158.5, 158.7, 158.8, 159.0, 159.1, 159.3, 159.4, 159.6, 159.8, 159.9, 
160.1, 160.2, 160.4, 160.5, 160.7, 160.9, 161.0, 161.2, 161.3, 161.5, 161.6, 161.8, 
162.0, 162.1, 162.3, 162.4, 162.6, 162.7, 162.9, 163.1, 163.2, 163.4, 163.5, 163.7, 
163.8, 164.0, 164.2, 164.3, 164.5, 164.6, 164.8, 164.9, 165.1, 165.3, 165.4, 165.6, 
165.7, 165.9, 166.0, 166.2, 166.4, 166.5, 166.7, 166.8, 167.0, 167.1, 167.3, 167.4, 
167.6, 167.8, 167.9, 168.1, 168.2, 168.4, 168.5, 168.7, 168.9, 169.0, 169.2, 169.3, 
169.5, 169.6, 169.8, 169.9, 170.1, 170.3, 170.4, 170.6, 170.7, 170.9, 171.0, 171.2, 
171.3, 171.5, 171.7, 171.8, 172.0, 172.1, 172.3, 172.4, 172.6, 172.7, 172.9, 173.1, 
173.2, 173.4, 173.5, 173.7, 173.8, 174.0, 174.1, 174.3, 174.5, 174.6, 174.8, 174.9, 
175.1, 175.2, 175.4, 175.5, 175.7, 175.9, 176.0, 176.2, 176.3, 176.5, 176.6, 176.8, 
176.9, 177.1, 177.2, 177.4, 177.6, 177.7, 177.9, 178.0, 178.2, 178.3, 178.5, 178.6, 
178.8, 178.9, 179.1, 179.3, 179.4, 179.6, 179.7, 179.9, 180.0, 180.2, 180.3, 180.5, 
180.6, 180.8, 181.0, 181.1, 181.3, 181.4, 181.6, 181.7, 181.9, 182.0, 182.2, 182.3, 
182.5, 182.6, 182.8, 183.0, 183.1, 183.3, 183.4, 183.6, 183.7, 183.9, 184.0, 184.2, 
184.3, 184.5, 184.6, 184.8, 185.0, 185.1, 185.3, 185.4, 185.6, 185.7, 185.9, 186.0, 
186.2, 186.3, 186.5, 186.6, 186.8, 187.0, 187.1, 187.3, 187.4, 187.6, 187.7, 187.9, 
188.0, 188.2, 188.3, 188.5, 188.6, 188.8, 188.9, 189.1, 189.2, 189.4, 189.6, 189.7, 
189.9, 190.0, 190.2, 190.3, 190.5, 190.6, 190.8, 190.9, 191.1, 191.2, 191.4, 191.5, 
191.7, 191.8, 192.0, 192.2, 192.3, 192.5, 192.6, 192.8, 192.9, 193.1, 193.2, 193.4, 
193.5, 193.7, 193.8, 194.0, 194.1, 194.3, 194.4, 194.6, 194.7, 194.9, 195.0, 195.2, 
195.4, 195.5, 195.7, 195.8, 196.0, 196.1, 196.3, 196.4, 196.6, 196.7, 196.9, 197.0, 
197.2, 197.3, 197.5, 197.6, 197.8, 197.9, 198.1, 198.2, 198.4, 198.5, 198.7, 198.8, 
199.0, 199.1, 199.3, 199.5, 199.6, 199.8, 199.9, 200.1, 200.2, 200.4, 200.5, 200.7, 
200.8, 201.0, 201.1, 201.3, 201.4, 201.6, 201.7, 201.9, 202.0, 202.2, 202.3, 202.5, 
202.6, 202.8, 202.9, 203.1, 203.2, 203.4, 203.5, 203.7, 203.8, 204.0, 204.1, 204.3, 
204.4, 204.6, 204.7, 204.9, 205.0, 205.2, 205.4, 205.5, 205.7, 205.8, 206.0, 206.1, 
206.3, 206.4, 206.6, 206.7, 206.9, 207.0, 207.2, 207.3, 207.5, 207.6, 207.8, 207.9, 
208.1, 208.2, 208.4, 208.5, 208.7, 208.8, 209.0, 209.1, 209.3, 209.4, 209.6, 209.7, 
209.9, 210.0, 210.2, 210.3, 210.5, 210.6, 210.8, 210.9, 211.1, 211.2, 211.4, 211.5, 
211.7, 211.8, 212.0, 212.1, 212.3, 212.4, 212.6, 212.7, 212.9, 213.0, 213.2, 213.3, 
213.5, 213.6, 213.8, 213.9, 214.1, 214.2, 214.4, 214.5, 214.7, 214.8, 215.0, 215.1, 
215.3, 215.4, 215.6, 215.7, 215.9, 216.0, 216.2, 216.3, 216.5, 216.6, 216.8, 216.9, 
217.1, 217.2, 217.4, 217.5, 217.7, 217.8, 218.0, 218.1, 218.3, 218.4, 218.6, 218.7, 
218.8, 219.0, 219.1, 219.3, 219.4, 219.6, 219.7, 219.9, 220.0, 220.2, 220.3, 220.5, 
220.6, 220.8, 220.9, 221.1, 221.2, 221.4, 221.5, 221.7, 221.8, 222.0, 222.1, 222.3, 
222.4, 222.6, 222.7, 222.9, 223.0, 223.2, 223.3, 223.5, 223.6, 223.8, 223.9, 224.1, 
224.2, 224.4, 224.5, 224.7, 224.8, 224.9, 225.1, 225.2, 225.4, 225.5, 225.7, 225.8, 
226.0, 226.1, 226.3, 226.4, 226.6, 226.7, 226.9, 227.0, 227.2, 227.3, 227.5, 227.6, 
227.8, 227.9, 228.1, 228.2, 228.4, 228.5, 228.7, 228.8, 229.0, 229.1, 229.2, 229.4, 
229.5, 229.7, 229.8, 230.0, 230.1, 230.3, 230.4, 230.6, 230.7, 230.9, 231.0, 231.2, 
231.3, 231.5, 231.6, 231.8, 231.9, 232.1, 232.2, 232.3, 232.5, 232.6, 232.8, 232.9, 
233.1, 233.2, 233.4, 233.5, 233.7, 233.8, 234.0, 234.1, 234.3, 234.4, 234.6, 234.7, 
234.9, 235.0, 235.2, 235.3, 235.4, 235.6, 235.7, 235.9, 236.0, 236.2, 236.3, 236.5, 
236.6, 236.8, 236.9, 237.1, 237.2, 237.4, 237.5, 237.7, 237.8, 237.9, 238.1, 238.2, 
238.4, 238.5, 238.7, 238.8, 239.0, 239.1, 239.3, 239.4, 239.6, 239.7, 239.9, 240.0, 
240.1, 240.3, 240.4, 240.6, 240.7, 240.9, 241.0, 241.2, 241.3, 241.5, 241.6, 241.8, 
241.9, 242.1, 242.2, 242.3, 242.5, 242.6, 242.8, 242.9, 243.1, 243.2, 243.4, 243.5, 
243.7, 243.8, 244.0, 244.1, 244.2, 244.4, 244.5, 244.7, 244.8, 245.0, 245.1, 245.3, 
245.4, 245.6, 245.7, 245.9, 246.0, 246.2, 246.3, 246.4, 246.6, 246.7, 246.9, 247.0, 
247.2, 247.3, 247.5, 247.6, 247.8, 247.9, 248.0, 248.2, 248.3, 248.5, 248.6, 248.8, 
248.9, 249.1, 249.2, 249.4, 249.5, 249.7, 249.8, 249.9, 250.1, 250.2, 250.4, 250.5, 
250.7, 250.8, 251.0, 251.1, 251.3, 251.4, 251.5, 251.7, 251.8, 252.0, 252.1, 252.3, 
252.4, 252.6, 252.7, 252.9, 253.0, 253.1, 253.3, 253.4, 253.6, 253.7, 253.9, 254.0, 
254.2, 254.3, 254.5, 254.6, 254.7, 254.9, 255.0, 255.2, 255.3, 255.5, 255.6, 255.8, 
255.9, 256.0, 256.2, 256.3, 256.5, 256.6, 256.8, 256.9, 257.1, 257.2, 257.4, 257.5, 
257.6, 257.8, 257.9, 258.1, 258.2, 258.4, 258.5, 258.7, 258.8, 258.9, 259.1, 259.2, 
259.4, 259.5, 259.7, 259.8, 260.0, 260.1, 260.2, 260.4, 260.5, 260.7, 260.8, 261.0, 
261.1, 261.3, 261.4, 261.6, 261.7, 261.8, 262.0, 262.1, 262.3, 262.4, 262.6, 262.7, 
262.9, 263.0, 263.1, 263.3, 263.4, 263.6, 263.7, 263.9, 264.0, 264.1, 264.3, 264.4, 
264.6, 264.7, 264.9, 265.0, 265.2, 265.3, 265.4, 265.6, 265.7, 265.9, 266.0, 266.2, 
266.3, 266.5, 266.6, 266.7, 266.9, 267.0, 267.2, 267.3, 267.5, 267.6, 267.8, 267.9, 
268.0, 268.2, 268.3, 268.5, 268.6, 268.8, 268.9, 269.0, 269.2, 269.3, 269.5, 269.6, 
269.8, 269.9, 270.1, 270.2, 270.3, 270.5, 270.6, 270.8, 270.9, 271.1, 271.2, 271.3, 
271.5, 271.6, 271.8, 271.9, 272.1, 272.2, 272.4, 272.5, 272.6, 272.8, 272.9, 273.1, 
273.2, 273.4, 273.5, 273.6, 273.8, 273.9, 274.1, 274.2, 274.4, 274.5, 274.6, 274.8, 
274.9, 275.1, 275.2, 275.4, 275.5, 275.6, 275.8, 275.9, 276.1, 276.2, 276.4, 276.5, 
276.7, 276.8, 276.9, 277.1, 277.2, 277.4, 277.5, 277.7, 277.8, 277.9, 278.1, 278.2, 
278.4, 278.5, 278.7, 278.8, 278.9, 279.1, 279.2, 279.4, 279.5, 279.7, 279.8, 279.9, 
280.1, 280.2, 280.4, 280.5, 280.7, 280.8, 280.9, 281.1, 281.2, 281.4, 281.5, 281.7, 
281.8, 281.9, 282.1, 282.2, 282.4, 282.5, 282.7, 282.8, 282.9, 283.1, 283.2, 283.4, 
283.5, 283.6, 283.8, 283.9, 284.1, 284.2, 284.4, 284.5, 284.6, 284.8, 284.9, 285.1, 
285.2, 285.4, 285.5, 285.6, 285.8, 285.9, 286.1, 286.2, 286.4, 286.5, 286.6, 286.8, 
286.9, 287.1, 287.2, 287.4, 287.5, 287.6, 287.8, 287.9, 288.1, 288.2, 288.3, 288.5, 
288.6, 288.8, 288.9, 289.1, 289.2, 289.3, 289.5, 289.6, 289.8, 289.9, 290.0, 290.2, 
290.3, 290.5, 290.6, 290.8, 290.9, 291.0, 291.2, 291.3, 291.5, 291.6, 291.8, 291.9, 
292.0, 292.2, 292.3, 292.5, 292.6, 292.7, 292.9, 293.0, 293.2, 293.3, 293.5, 293.6, 
293.7, 293.9, 294.0, 294.2, 294.3, 294.4, 294.6, 294.7, 294.9, 295.0, 295.2, 295.3, 
295.4, 295.6, 295.7, 295.9, 296.0, 296.1, 296.3, 296.4, 296.6, 296.7, 296.9, 297.0, 
297.1, 297.3, 297.4, 297.6, 297.7, 297.8, 298.0, 298.1, 298.3, 298.4, 298.5, 298.7, 
298.8, 299.0, 299.1, 299.3, 299.4, 299.5, 299.7, 299.8, 300.0, 300.1, 300.2, 300.4, 
300.5, 300.7, 300.8, 300.9, 301.1, 301.2, 301.4, 301.5, 301.7, 301.8, 301.9, 302.1, 
302.2, 302.4, 302.5, 302.6, 302.8, 302.9, 303.1, 303.2, 303.3, 303.5, 303.6, 303.8, 
303.9, 304.0, 304.2, 304.3, 304.5, 304.6, 304.8, 304.9, 305.0, 305.2, 305.3, 305.5, 
305.6, 305.7, 305.9, 306.0, 306.2, 306.3, 306.4, 306.6, 306.7, 306.9, 307.0, 307.1, 
307.3, 307.4, 307.6, 307.7, 307.8, 308.0, 308.1, 308.3, 308.4, 308.5, 308.7, 308.8, 
309.0, 309.1, 309.3, 309.4, 309.5, 309.7, 309.8, 310.0, 310.1, 310.2, 310.4, 310.5, 
310.7, 310.8, 310.9, 311.1, 311.2, 311.4, 311.5, 311.6, 311.8, 311.9, 312.1, 312.2, 
312.3, 312.5, 312.6, 312.8, 312.9, 313.0, 313.2, 313.3, 313.5, 313.6, 313.7, 313.9, 
314.0, 314.2, 314.3, 314.4, 314.6, 314.7, 314.9, 315.0, 315.1, 315.3, 315.4, 315.6, 
315.7, 315.8, 316.0, 316.1, 316.3, 316.4, 316.5, 316.7, 316.8, 317.0, 317.1, 317.2, 
317.4, 317.5, 317.7, 317.8, 317.9, 318.1, 318.2, 318.4, 318.5, 318.6, 318.8, 318.9, 
319.1, 319.2, 319.3, 319.5, 319.6, 319.8, 319.9, 320.0, 320.2, 320.3, 320.5, 320.6, 
320.7, 320.9, 321.0, 321.1, 321.3, 321.4, 321.6, 321.7, 321.8, 322.0, 322.1, 322.3, 
322.4, 322.5, 322.7, 322.8, 323.0, 323.1, 323.2, 323.4, 323.5, 323.7, 323.8, 323.9, 
324.1, 324.2, 324.4, 324.5, 324.6, 324.8, 324.9, 325.1, 325.2, 325.3, 325.5, 325.6, 
325.7, 325.9, 326.0, 326.2, 326.3, 326.4, 326.6, 326.7, 326.9, 327.0, 327.1, 327.3, 
327.4, 327.6, 327.7, 327.8, 328.0, 328.1, 328.3, 328.4, 328.5, 328.7, 328.8, 328.9, 
329.1, 329.2, 329.4, 329.5, 329.6, 329.8, 329.9, 330.1, 330.2, 330.3, 330.5, 330.6, 
330.8, 330.9, 331.0, 331.2, 331.3, 331.4, 331.6, 331.7, 331.9, 332.0, 332.1, 332.3, 
332.4, 332.6, 332.7, 332.8, 333.0, 333.1, 333.3, 333.4, 333.5, 333.7, 333.8, 333.9, 
334.1, 334.2, 334.4, 334.5, 334.6, 334.8, 334.9, 335.1, 335.2, 335.3, 335.5, 335.6, 
335.7, 335.9, 336.0, 336.2, 336.3, 336.4, 336.6, 336.7, 336.9, 337.0, 337.1, 337.3, 
337.4, 337.5, 337.7, 337.8, 338.0, 338.1, 338.2, 338.4, 338.5, 338.7, 338.8, 338.9, 
339.1, 339.2, 339.3, 339.5, 339.6, 339.8, 339.9, 340.0, 340.2, 340.3, 340.5, 340.6, 
340.7, 340.9, 341.0, 341.1, 341.3, 341.4, 341.6, 341.7, 341.8, 342.0, 342.1, 342.2, 
342.4, 342.5, 342.7, 342.8, 342.9, 343.1, 343.2, 343.4, 343.5, 343.6, 343.8, 343.9, 
344.0, 344.2, 344.3, 344.5, 344.6, 344.7, 344.9, 345.0, 345.1, 345.3, 345.4, 345.6, 
345.7, 345.8, 346.0, 346.1, 346.2, 346.4, 346.5, 346.7, 346.8, 346.9, 347.1, 347.2, 
347.3, 347.5, 347.6, 347.8, 347.9, 348.0, 348.2, 348.3, 348.5, 348.6, 348.7, 348.9, 
349.0, 349.1, 349.3, 349.4, 349.6, 349.7, 349.8, 350.0, 350.1, 350.2, 350.4, 350.5, 
350.7, 350.8, 350.9, 351.1, 351.2, 351.3, 351.5, 351.6, 351.8, 351.9, 352.0, 352.2, 
352.3, 352.4, 352.6, 352.7, 352.9, 353.0, 353.1, 353.3, 353.4, 353.5, 353.7, 353.8, 
354.0, 354.1, 354.2, 354.4, 354.5, 354.6, 354.8, 354.9, 355.0, 355.2, 355.3, 355.5, 
355.6, 355.7, 355.9, 356.0, 356.1, 356.3, 356.4, 356.6, 356.7, 356.8, 357.0, 357.1, 
357.2, 357.4, 357.5, 357.7, 357.8, 357.9, 358.1, 358.2, 358.3, 358.5, 358.6, 358.8, 
358.9, 359.0, 359.2, 359.3, 359.4, 359.6, 359.7, 359.8, 360.0, 360.1, 360.3, 360.4, 
360.5, 360.7, 360.8, 360.9, 361.1, 361.2, 361.4, 361.5, 361.6, 361.8, 361.9, 362.0, 
362.2, 362.3, 362.4, 362.6, 362.7, 362.9, 363.0, 363.1, 363.3, 363.4, 363.5, 363.7, 
363.8, 364.0, 364.1, 364.2, 364.4, 364.5, 364.6, 364.8, 364.9, 365.0, 365.2, 365.3, 
365.5, 365.6, 365.7, 365.9, 366.0, 366.1, 366.3, 366.4, 366.5, 366.7, 366.8, 367.0, 
367.1, 367.2, 367.4, 367.5, 367.6, 367.8, 367.9, 368.1, 368.2, 368.3, 368.5, 368.6, 
368.7, 368.9, 369.0, 369.1, 369.3, 369.4, 369.6, 369.7, 369.8, 370.0, 370.1, 370.2, 
370.4, 370.5, 370.6, 370.8, 370.9, 371.1, 371.2, 371.3, 371.5, 371.6, 371.7, 371.9, 
372.0, 372.1, 372.3, 372.4, 372.6, 372.7, 372.8, 373.0, 373.1, 373.2, 373.4, 373.5, 
373.6, 373.8, 373.9, 374.0, 374.2, 374.3, 374.5, 374.6, 374.7, 374.9, 375.0, 375.1, 
375.3, 375.4, 375.5, 375.7, 375.8, 376.0, 376.1, 376.2, 376.4, 376.5, 376.6, 376.8, 
376.9, 377.0, 377.2, 377.3, 377.4, 377.6, 377.7, 377.9, 378.0, 378.1, 378.3, 378.4, 
378.5, 378.7, 378.8, 378.9, 379.1, 379.2, 379.4, 379.5, 379.6, 379.8, 379.9, 380.0, 
380.2, 380.3, 380.4, 380.6, 380.7, 380.8, 381.0, 381.1, 381.3, 381.4, 381.5, 381.7, 
381.8, 381.9, 382.1, 382.2, 382.3, 382.5, 382.6, 382.7, 382.9, 383.0, 383.2, 383.3, 
383.4, 383.6, 383.7, 383.8, 384.0, 384.1, 384.2, 384.4, 384.5, 384.6, 384.8, 384.9, 
385.0, 385.2, 385.3, 385.5, 385.6, 385.7, 385.9, 386.0, 386.1, 386.3, 386.4, 386.5, 
386.7, 386.8, 386.9, 387.1, 387.2, 387.4, 387.5, 387.6, 387.8, 387.9, 388.0, 388.2, 
388.3, 388.4, 388.6, 388.7, 388.8, 389.0, 389.1, 389.2, 389.4, 389.5, 389.7, 389.8, 
389.9, 390.1, 390.2, 390.3, 390.5, 390.6, 390.7, 390.9, 391.0, 391.1, 391.3, 391.4, 
391.5, 391.7, 391.8, 391.9, 392.1, 392.2, 392.4, 392.5, 392.6, 392.8, 392.9, 393.0, 
393.2, 393.3, 393.4, 393.6, 393.7, 393.8, 394.0, 394.1, 394.2, 394.4, 394.5, 394.6, 
394.8, 394.9, 395.1, 395.2, 395.3, 395.5, 395.6, 395.7, 395.9, 396.0, 396.1, 396.3, 
396.4, 396.5, 396.7, 396.8, 396.9, 397.1, 397.2, 397.3, 397.5, 397.6, 397.8, 397.9, 
398.0, 398.2, 398.3, 398.4, 398.6, 398.7, 398.8, 399.0, 399.1, 399.2, 399.4, 399.5, 
399.6, 399.8, 399.9, 400.0, 400.2, 400.3, 400.4, 400.6, 400.7, 400.9, 401.0, 401.1, 
401.3, 401.4, 401.5, 401.7, 401.8, 401.9, 402.1, 402.2, 402.3, 402.5, 402.6, 402.7, 
402.9, 403.0, 403.1, 403.3, 403.4, 403.5, 403.7, 403.8, 403.9, 404.1, 404.2, 404.3, 
404.5, 404.6, 404.8, 404.9, 405.0, 405.2, 405.3, 405.4, 405.6, 405.7, 405.8, 406.0, 
406.1, 406.2, 406.4, 406.5, 406.6, 406.8, 406.9, 407.0, 407.2, 407.3, 407.4, 407.6, 
407.7, 407.8, 408.0, 408.1, 408.2, 408.4, 408.5, 408.6, 408.8, 408.9, 409.1, 409.2, 
409.3, 409.5, 409.6, 409.7, 409.9, 410.0, 410.1, 410.3, 410.4, 410.5, 410.7, 410.8, 
410.9, 411.1, 411.2, 411.3, 411.5, 411.6, 411.7, 411.9, 412.0, 412.1, 412.3, 412.4, 
412.5, 412.7, 412.8, 412.9, 413.1, 413.2, 413.3, 413.5, 413.6, 413.7, 413.9, 414.0, 
414.1, 414.3, 414.4, 414.5, 414.7, 414.8, 415.0, 415.1, 415.2, 415.4, 415.5, 415.6, 
415.8, 415.9, 416.0, 416.2, 416.3, 416.4, 416.6, 416.7, 416.8, 417.0, 417.1, 417.2, 
417.4, 417.5, 417.6, 417.8, 417.9, 418.0, 418.2, 418.3, 418.4, 418.6, 418.7, 418.8, 
419.0, 419.1, 419.2, 419.4, 419.5, 419.6, 419.8, 419.9, 420.0, 420.2, 420.3, 420.4, 
420.6, 420.7, 420.8, 421.0, 421.1, 421.2, 421.4, 421.5, 421.6, 421.8, 421.9, 422.0, 
422.2, 422.3, 422.4, 422.6, 422.7, 422.8, 423.0, 423.1, 423.2, 423.4, 423.5, 423.6, 
423.8, 423.9, 424.0, 424.2, 424.3, 424.4, 424.6, 424.7, 424.8, 425.0, 425.1, 425.2, 
425.4, 425.5, 425.6, 425.8, 425.9, 426.0, 426.2, 426.3, 426.4, 426.6, 426.7, 426.8, 
427.0, 427.1, 427.2, 427.4, 427.5, 427.6, 427.8, 427.9, 428.0, 428.2, 428.3, 428.4, 
428.6, 428.7, 428.8, 429.0, 429.1, 429.2, 429.4, 429.5, 429.6, 429.8, 429.9, 430.0, 
430.2, 430.3, 430.4, 430.6, 430.7, 430.8, 431.0, 431.1, 431.2, 431.4, 431.5, 431.6, 
431.8, 431.9, 432.0, 432.2, 432.3, 432.4, 432.6, 432.7, 432.8, 433.0, 433.1, 433.2, 
433.4, 433.5, 433.6, 433.8, 433.9, 434.0, 434.2, 434.3, 434.4, 434.6, 434.7, 434.8, 
435.0, 435.1, 435.2, 435.4, 435.5, 435.6, 435.8, 435.9, 436.0, 436.2, 436.3, 436.4, 
436.6, 436.7, 436.8, 437.0, 437.1, 437.2, 437.4, 437.5, 437.6, 437.8, 437.9, 438.0, 
438.2, 438.3, 438.4, 438.6, 438.7, 438.8, 439.0, 439.1, 439.2, 439.4, 439.5, 439.6, 
439.8, 439.9, 440.0, 440.2, 440.3, 440.4, 440.6, 440.7, 440.8, 441.0, 441.1, 441.2, 
441.3, 441.5, 441.6, 441.7, 441.9, 442.0, 442.1, 442.3, 442.4, 442.5, 442.7, 442.8, 
442.9, 443.1, 443.2, 443.3, 443.5, 443.6, 443.7, 443.9, 444.0, 444.1, 444.3, 444.4, 
444.5, 444.7, 444.8, 444.9, 445.1, 445.2, 445.3, 445.5, 445.6, 445.7, 445.9, 446.0, 
446.1, 446.3, 446.4, 446.5, 446.7, 446.8, 446.9, 447.1, 447.2, 447.3, 447.4, 447.6, 
447.7, 447.8, 448.0, 448.1, 448.2, 448.4, 448.5, 448.6, 448.8, 448.9, 449.0, 449.2, 
449.3, 449.4, 449.6, 449.7, 449.8, 450.0, 450.1, 450.2, 450.4, 450.5, 450.6, 450.8, 
450.9, 451.0, 451.2, 451.3, 451.4, 451.6, 451.7, 451.8, 452.0, 452.1, 452.2, 452.3, 
452.5, 452.6, 452.7, 452.9, 453.0, 453.1, 453.3, 453.4, 453.5, 453.7, 453.8, 453.9, 
454.1, 454.2, 454.3, 454.5, 454.6, 454.7, 454.9, 455.0, 455.1, 455.3, 455.4, 455.5, 
455.7, 455.8, 455.9, 456.0, 456.2, 456.3, 456.4, 456.6, 456.7, 456.8, 457.0, 457.1, 
457.2, 457.4, 457.5, 457.6, 457.8, 457.9, 458.0, 458.2, 458.3, 458.4, 458.6, 458.7, 
458.8, 459.0, 459.1, 459.2, 459.4, 459.5, 459.6, 459.7, 459.9, 460.0, 460.1, 460.3, 
460.4, 460.5, 460.7, 460.8, 460.9, 461.1, 461.2, 461.3, 461.5, 461.6, 461.7, 461.9, 
462.0, 462.1, 462.3, 462.4, 462.5, 462.6, 462.8, 462.9, 463.0, 463.2, 463.3, 463.4, 
463.6, 463.7, 463.8, 464.0, 464.1, 464.2, 464.4, 464.5, 464.6, 464.8, 464.9, 465.0, 
465.2, 465.3, 465.4, 465.5, 465.7, 465.8, 465.9, 466.1, 466.2, 466.3, 466.5, 466.6, 
466.7, 466.9, 467.0, 467.1, 467.3, 467.4, 467.5, 467.7, 467.8, 467.9, 468.1, 468.2, 
468.3, 468.4, 468.6, 468.7, 468.8, 469.0, 469.1, 469.2, 469.4, 469.5, 469.6, 469.8, 
469.9, 470.0, 470.2, 470.3, 470.4, 470.6, 470.7, 470.8, 470.9, 471.1, 471.2, 471.3, 
471.5, 471.6, 471.7, 471.9, 472.0, 472.1, 472.3, 472.4, 472.5, 472.7, 472.8, 472.9, 
473.1, 473.2, 473.3, 473.4, 473.6, 473.7, 473.8, 474.0, 474.1, 474.2, 474.4, 474.5, 
474.6, 474.8, 474.9, 475.0, 475.2, 475.3, 475.4, 475.6, 475.7, 475.8, 475.9, 476.1, 
476.2, 476.3, 476.5, 476.6, 476.7, 476.9, 477.0, 477.1, 477.3, 477.4, 477.5, 477.7, 
477.8, 477.9, 478.0, 478.2, 478.3, 478.4, 478.6, 478.7, 478.8, 479.0, 479.1, 479.2, 
479.4, 479.5, 479.6, 479.8, 479.9, 480.0, 480.1, 480.3, 480.4, 480.5, 480.7, 480.8, 
480.9, 481.1, 481.2, 481.3, 481.5, 481.6, 481.7, 481.9, 482.0, 482.1, 482.2, 482.4, 
482.5, 482.6, 482.8, 482.9, 483.0, 483.2, 483.3, 483.4, 483.6, 483.7, 483.8, 484.0, 
484.1, 484.2, 484.3, 484.5, 484.6, 484.7, 484.9, 485.0, 485.1, 485.3, 485.4, 485.5, 
485.7, 485.8, 485.9, 486.0, 486.2, 486.3, 486.4, 486.6, 486.7, 486.8, 487.0, 487.1, 
487.2, 487.4, 487.5, 487.6, 487.8, 487.9, 488.0, 488.1, 488.3, 488.4, 488.5, 488.7, 
488.8, 488.9, 489.1, 489.2, 489.3, 489.5, 489.6, 489.7, 489.8, 490.0, 490.1, 490.2, 
490.4, 490.5, 490.6, 490.8, 490.9, 491.0, 491.2, 491.3, 491.4, 491.5, 491.7, 491.8, 
491.9, 492.1, 492.2, 492.3, 492.5, 492.6, 492.7, 492.9, 493.0, 493.1, 493.3, 493.4, 
493.5, 493.6, 493.8, 493.9, 494.0, 494.2, 494.3, 494.4, 494.6, 494.7, 494.8, 495.0, 
495.1, 495.2, 495.3, 495.5, 495.6, 495.7, 495.9, 496.0, 496.1, 496.3, 496.4, 496.5, 
496.7, 496.8, 496.9, 497.0, 497.2, 497.3, 497.4, 497.6, 497.7, 497.8, 498.0, 498.1, 
498.2, 498.3, 498.5, 498.6, 498.7, 498.9, 499.0, 499.1, 499.3, 499.4, 499.5, 499.7, 
499.8, 499.9, 500.0, 500.2, 500.3, 500.4, 500.6, 500.7, 500.8, 501.0, 501.1, 501.2, 
501.4, 501.5, 501.6, 501.7, 501.9, 502.0, 502.1, 502.3, 502.4, 502.5, 502.7, 502.8, 
502.9, 503.1, 503.2, 503.3, 503.4, 503.6, 503.7, 503.8, 504.0, 504.1, 504.2, 504.4, 
504.5, 504.6, 504.7, 504.9, 505.0, 505.1, 505.3, 505.4, 505.5, 505.7, 505.8, 505.9, 
506.1, 506.2, 506.3, 506.4, 506.6, 506.7, 506.8, 507.0, 507.1, 507.2, 507.4, 507.5, 
507.6, 507.7, 507.9, 508.0, 508.1, 508.3, 508.4, 508.5, 508.7, 508.8, 508.9, 509.1, 
509.2, 509.3, 509.4, 509.6, 509.7, 509.8, 510.0, 510.1, 510.2, 510.4, 510.5, 510.6, 
510.7, 510.9, 511.0, 511.1, 511.3, 511.4, 511.5, 511.7, 511.8, 511.9, 512.0, 512.2, 
512.3, 512.4, 512.6, 512.7, 512.8, 513.0, 513.1, 513.2, 513.4, 513.5, 513.6, 513.7, 
513.9, 514.0, 514.1, 514.3, 514.4, 514.5, 514.7, 514.8, 514.9, 515.0, 515.2, 515.3, 
515.4, 515.6, 515.7, 515.8, 516.0, 516.1, 516.2, 516.3, 516.5, 516.6, 516.7, 516.9, 
517.0, 517.1, 517.3, 517.4, 517.5, 517.6, 517.8, 517.9, 518.0, 518.2, 518.3, 518.4, 
518.6, 518.7, 518.8, 518.9, 519.1, 519.2, 519.3, 519.5, 519.6, 519.7, 519.9, 520.0, 
520.1, 520.3, 520.4, 520.5, 520.6, 520.8, 520.9, 521.0, 521.2, 521.3, 521.4, 521.6, 
521.7, 521.8, 521.9, 522.1, 522.2, 522.3, 522.5, 522.6, 522.7, 522.9, 523.0, 523.1, 
523.2, 523.4, 523.5, 523.6, 523.8, 523.9, 524.0, 524.2, 524.3, 524.4, 524.5, 524.7, 
524.8, 524.9, 525.1, 525.2, 525.3, 525.5, 525.6, 525.7, 525.8, 526.0, 526.1, 526.2, 
526.4, 526.5, 526.6, 526.7, 526.9, 527.0, 527.1, 527.3, 527.4, 527.5, 527.7, 527.8, 
527.9, 528.0, 528.2, 528.3, 528.4, 528.6, 528.7, 528.8, 529.0, 529.1, 529.2, 529.3, 
529.5, 529.6, 529.7, 529.9, 530.0, 530.1, 530.3, 530.4, 530.5, 530.6, 530.8, 530.9, 
531.0, 531.2, 531.3, 531.4, 531.6, 531.7, 531.8, 531.9, 532.1, 532.2, 532.3, 532.5, 
532.6, 532.7, 532.9, 533.0, 533.1, 533.2, 533.4, 533.5, 533.6, 533.8, 533.9, 534.0, 
534.1, 534.3, 534.4, 534.5, 534.7, 534.8, 534.9, 535.1, 535.2, 535.3, 535.4, 535.6, 
535.7, 535.8, 536.0, 536.1, 536.2, 536.4, 536.5, 536.6, 536.7, 536.9, 537.0, 537.1, 
537.3, 537.4, 537.5, 537.6, 537.8, 537.9, 538.0, 538.2, 538.3, 538.4, 538.6, 538.7, 
538.8, 538.9, 539.1, 539.2, 539.3, 539.5, 539.6, 539.7, 539.9, 540.0, 540.1, 540.2, 
540.4, 540.5, 540.6, 540.8, 540.9, 541.0, 541.1, 541.3, 541.4, 541.5, 541.7, 541.8, 
541.9, 542.1, 542.2, 542.3, 542.4, 542.6, 542.7, 542.8, 543.0, 543.1, 543.2, 543.4, 
543.5, 543.6, 543.7, 543.9, 544.0, 544.1, 544.3, 544.4, 544.5, 544.6, 544.8, 544.9, 
545.0, 545.2, 545.3, 545.4, 545.6, 545.7, 545.8, 545.9, 546.1, 546.2, 546.3, 546.5, 
546.6, 546.7, 546.8, 547.0, 547.1, 547.2, 547.4, 547.5, 547.6, 547.8, 547.9, 548.0, 
548.1, 548.3, 548.4, 548.5, 548.7, 548.8, 548.9, 549.0, 549.2, 549.3, 549.4, 549.6, 
549.7, 549.8, 550.0, 550.1, 550.2, 550.3, 550.5, 550.6, 550.7, 550.9, 551.0, 551.1, 
551.2, 551.4, 551.5, 551.6, 551.8, 551.9, 552.0, 552.2, 552.3, 552.4, 552.5, 552.7, 
552.8, 552.9, 553.1, 553.2, 553.3, 553.4, 553.6, 553.7, 553.8, 554.0, 554.1, 554.2, 
554.3, 554.5, 554.6, 554.7, 554.9, 555.0, 555.1, 555.3, 555.4, 555.5, 555.6, 555.8, 
555.9, 556.0, 556.2, 556.3, 556.4, 556.5, 556.7, 556.8, 556.9, 557.1, 557.2, 557.3, 
557.4, 557.6, 557.7, 557.8, 558.0, 558.1, 558.2, 558.4, 558.5, 558.6, 558.7, 558.9, 
559.0, 559.1, 559.3, 559.4, 559.5, 559.6, 559.8, 559.9, 560.0, 560.2, 560.3, 560.4, 
560.5, 560.7, 560.8, 560.9, 561.1, 561.2, 561.3, 561.5, 561.6, 561.7, 561.8, 562.0, 
562.1, 562.2, 562.4, 562.5, 562.6, 562.7, 562.9, 563.0, 563.1, 563.3, 563.4, 563.5, 
563.6, 563.8, 563.9, 564.0, 564.2, 564.3, 564.4, 564.5, 564.7, 564.8, 564.9, 565.1, 
565.2, 565.3, 565.5, 565.6, 565.7, 565.8, 566.0, 566.1, 566.2, 566.4, 566.5, 566.6, 
566.7, 566.9, 567.0, 567.1, 567.3, 567.4, 567.5, 567.6, 567.8, 567.9, 568.0, 568.2, 
568.3, 568.4, 568.5, 568.7, 568.8, 568.9, 569.1, 569.2, 569.3, 569.5, 569.6, 569.7, 
569.8, 570.0, 570.1, 570.2, 570.4, 570.5, 570.6, 570.7, 570.9, 571.0, 571.1, 571.3, 
571.4, 571.5, 571.6, 571.8, 571.9, 572.0, 572.2, 572.3, 572.4, 572.5, 572.7, 572.8, 
572.9, 573.1, 573.2, 573.3, 573.4, 573.6, 573.7, 573.8, 574.0, 574.1, 574.2, 574.3, 
574.5, 574.6, 574.7, 574.9, 575.0, 575.1, 575.2, 575.4, 575.5, 575.6, 575.8, 575.9, 
576.0, 576.1, 576.3, 576.4, 576.5, 576.7, 576.8, 576.9, 577.1, 577.2, 577.3, 577.4, 
577.6, 577.7, 577.8, 578.0, 578.1, 578.2, 578.3, 578.5, 578.6, 578.7, 578.9, 579.0, 
579.1, 579.2, 579.4, 579.5, 579.6, 579.8, 579.9, 580.0, 580.1, 580.3, 580.4, 580.5, 
580.7, 580.8, 580.9, 581.0, 581.2, 581.3, 581.4, 581.6, 581.7, 581.8, 581.9, 582.1, 
582.2, 582.3, 582.5, 582.6, 582.7, 582.8, 583.0, 583.1, 583.2, 583.4, 583.5, 583.6, 
583.7, 583.9, 584.0, 584.1, 584.3, 584.4, 584.5, 584.6, 584.8, 584.9, 585.0, 585.2, 
585.3, 585.4, 585.5, 585.7, 585.8, 585.9, 586.1, 586.2, 586.3, 586.4, 586.6, 586.7, 
586.8, 587.0, 587.1, 587.2, 587.3, 587.5, 587.6, 587.7, 587.9, 588.0, 588.1, 588.2, 
588.4, 588.5, 588.6, 588.7, 588.9, 589.0, 589.1, 589.3, 589.4, 589.5, 589.6, 589.8, 
589.9, 590.0, 590.2, 590.3, 590.4, 590.5, 590.7, 590.8, 590.9, 591.1, 591.2, 591.3, 
591.4, 591.6, 591.7, 591.8, 592.0, 592.1, 592.2, 592.3, 592.5, 592.6, 592.7, 592.9, 
593.0, 593.1, 593.2, 593.4, 593.5, 593.6, 593.8, 593.9, 594.0, 594.1, 594.3, 594.4, 
594.5, 594.7, 594.8, 594.9, 595.0, 595.2, 595.3, 595.4, 595.6, 595.7, 595.8, 595.9, 
596.1, 596.2, 596.3, 596.4, 596.6, 596.7, 596.8, 597.0, 597.1, 597.2, 597.3, 597.5, 
597.6, 597.7, 597.9, 598.0, 598.1, 598.2, 598.4, 598.5, 598.6, 598.8, 598.9, 599.0, 
599.1, 599.3, 599.4, 599.5, 599.7, 599.8, 599.9, 600.0, 600.2, 600.3, 600.4, 600.6, 
600.7, 600.8, 600.9, 601.1, 601.2, 601.3, 601.5, 601.6, 601.7, 601.8, 602.0, 602.1, 
602.2, 602.4, 602.5, 602.6, 602.7, 602.9, 603.0, 603.1, 603.3, 603.4, 603.5, 603.6, 
603.8, 603.9, 604.0, 604.2, 604.3, 604.4, 604.5, 604.7, 604.8, 604.9, 605.1, 605.2, 
605.3, 605.4, 605.6, 605.7, 605.8, 605.9, 606.1, 606.2, 606.3, 606.5, 606.6, 606.7, 
606.8, 607.0, 607.1, 607.2, 607.4, 607.5, 607.6, 607.7, 607.9, 608.0, 608.1, 608.3, 
608.4, 608.5, 608.6, 608.8, 608.9, 609.0, 609.2, 609.3, 609.4, 609.5, 609.7, 609.8, 
609.9, 610.1, 610.2, 610.3, 610.4, 610.6, 610.7, 610.8, 610.9, 611.1, 611.2, 611.3, 
611.5, 611.6, 611.7, 611.8, 612.0, 612.1, 612.2, 612.4, 612.5, 612.6, 612.7, 612.9, 
613.0, 613.1, 613.3, 613.4, 613.5, 613.6, 613.8, 613.9, 614.0, 614.2, 614.3, 614.4, 
614.5, 614.7, 614.8, 614.9, 615.0, 615.2, 615.3, 615.4, 615.6, 615.7, 615.8, 615.9, 
616.1, 616.2, 616.3, 616.5, 616.6, 616.7, 616.8, 617.0, 617.1, 617.2, 617.4, 617.5, 
617.6, 617.7, 617.9, 618.0, 618.1, 618.3, 618.4, 618.5, 618.6, 618.8, 618.9, 619.0, 
619.1, 619.3, 619.4, 619.5, 619.7, 619.8, 619.9, 620.0, 620.2, 620.3, 620.4, 620.6, 
620.7, 620.8, 620.9, 621.1, 621.2, 621.3, 621.5, 621.6, 621.7, 621.8, 622.0, 622.1, 
622.2, 622.3, 622.5, 622.6, 622.7, 622.9, 623.0, 623.1, 623.2, 623.4, 623.5, 623.6, 
623.8, 623.9, 624.0, 624.1, 624.3, 624.4, 624.5, 624.7, 624.8, 624.9, 625.0, 625.2, 
625.3, 625.4, 625.6, 625.7, 625.8, 625.9, 626.1, 626.2, 626.3, 626.4, 626.6, 626.7, 
626.8, 627.0, 627.1, 627.2, 627.3, 627.5, 627.6, 627.7, 627.9, 628.0, 628.1, 628.2, 
628.4, 628.5, 628.6, 628.7, 628.9, 629.0, 629.1, 629.3, 629.4, 629.5, 629.6, 629.8, 
629.9, 630.0, 630.2, 630.3, 630.4, 630.5, 630.7, 630.8, 630.9, 631.1, 631.2, 631.3, 
631.4, 631.6, 631.7, 631.8, 631.9, 632.1, 632.2, 632.3, 632.5, 632.6, 632.7, 632.8, 
633.0, 633.1, 633.2, 633.4, 633.5, 633.6, 633.7, 633.9, 634.0, 634.1, 634.2, 634.4, 
634.5, 634.6, 634.8, 634.9, 635.0, 635.1, 635.3, 635.4, 635.5, 635.7, 635.8, 635.9, 
636.0, 636.2, 636.3, 636.4, 636.6, 636.7, 636.8, 636.9, 637.1, 637.2, 637.3, 637.4, 
637.6, 637.7, 637.8, 638.0, 638.1, 638.2, 638.3, 638.5, 638.6, 638.7, 638.9, 639.0, 
639.1, 639.2, 639.4, 639.5, 639.6, 639.7, 639.9, 640.0, 640.1, 640.3, 640.4, 640.5, 
640.6, 640.8, 640.9, 641.0, 641.2, 641.3, 641.4, 641.5, 641.7, 641.8, 641.9, 642.0, 
642.2, 642.3, 642.4, 642.6, 642.7, 642.8, 642.9, 643.1, 643.2, 643.3, 643.5, 643.6, 
643.7, 643.8, 644.0, 644.1, 644.2, 644.3, 644.5, 644.6, 644.7, 644.9, 645.0, 645.1, 
645.2, 645.4, 645.5, 645.6, 645.8, 645.9, 646.0, 646.1, 646.3, 646.4, 646.5, 646.6, 
646.8, 646.9, 647.0, 647.2, 647.3, 647.4, 647.5, 647.7, 647.8, 647.9, 648.1, 648.2, 
648.3, 648.4, 648.6, 648.7, 648.8, 648.9, 649.1, 649.2, 649.3, 649.5, 649.6, 649.7, 
649.8, 650.0, 650.1, 650.2, 650.4, 650.5, 650.6, 650.7, 650.9, 651.0, 651.1, 651.2, 
651.4, 651.5, 651.6, 651.8, 651.9, 652.0, 652.1, 652.3, 652.4, 652.5, 652.7, 652.8, 
652.9, 653.0, 653.2, 653.3, 653.4, 653.5, 653.7, 653.8, 653.9, 654.1, 654.2, 654.3, 
654.4, 654.6, 654.7, 654.8, 655.0, 655.1, 655.2, 655.3, 655.5, 655.6, 655.7, 655.8, 
656.0, 656.1, 656.2, 656.4, 656.5, 656.6, 656.7, 656.9, 657.0, 657.1, 657.2, 657.4, 
657.5, 657.6, 657.8, 657.9, 658.0, 658.1, 658.3, 658.4, 658.5, 658.7, 658.8, 658.9, 
659.0, 659.2, 659.3, 659.4, 659.5, 659.7, 659.8, 659.9, 660.1, 660.2, 660.3, 660.4, 
660.6, 660.7, 660.8, 660.9, 661.1, 661.2, 661.3, 661.5, 661.6, 661.7, 661.8, 662.0, 
662.1, 662.2, 662.4, 662.5, 662.6, 662.7, 662.9, 663.0, 663.1, 663.2, 663.4, 663.5, 
663.6, 663.8, 663.9, 664.0, 664.1, 664.3, 664.4, 664.5, 664.7, 664.8, 664.9, 665.0, 
665.2, 665.3, 665.4, 665.5, 665.7, 665.8, 665.9, 666.1, 666.2, 666.3, 666.4, 666.6, 
666.7, 666.8, 666.9, 667.1, 667.2, 667.3, 667.5, 667.6, 667.7, 667.8, 668.0, 668.1, 
668.2, 668.4, 668.5, 668.6, 668.7, 668.9, 669.0, 669.1, 669.2, 669.4, 669.5, 669.6, 
669.8, 669.9, 670.0, 670.1, 670.3, 670.4, 670.5, 670.6, 670.8, 670.9, 671.0, 671.2, 
671.3, 671.4, 671.5, 671.7, 671.8, 671.9, 672.0, 672.2, 672.3, 672.4, 672.6, 672.7, 
672.8, 672.9, 673.1, 673.2, 673.3, 673.5, 673.6, 673.7, 673.8, 674.0, 674.1, 674.2, 
674.3, 674.5, 674.6, 674.7, 674.9, 675.0, 675.1, 675.2, 675.4, 675.5, 675.6, 675.7, 
675.9, 676.0, 676.1, 676.3, 676.4, 676.5, 676.6, 676.8, 676.9, 677.0, 677.2, 677.3, 
677.4, 677.5, 677.7, 677.8, 677.9, 678.0, 678.2, 678.3, 678.4, 678.6, 678.7, 678.8, 
678.9, 679.1, 679.2, 679.3, 679.4, 679.6, 679.7, 679.8, 680.0, 680.1, 680.2, 680.3, 
680.5, 680.6, 680.7, 680.8, 681.0, 681.1, 681.2, 681.4, 681.5, 681.6, 681.7, 681.9, 
682.0, 682.1, 682.2, 682.4, 682.5, 682.6, 682.8, 682.9, 683.0, 683.1, 683.3, 683.4, 
683.5, 683.7, 683.8, 683.9, 684.0, 684.2, 684.3, 684.4, 684.5, 684.7, 684.8, 684.9, 
685.1, 685.2, 685.3, 685.4, 685.6, 685.7, 685.8, 685.9, 686.1, 686.2, 686.3, 686.5, 
686.6, 686.7, 686.8, 687.0, 687.1, 687.2, 687.3, 687.5, 687.6, 687.7, 687.9, 688.0, 
688.1, 688.2, 688.4, 688.5, 688.6, 688.7, 688.9, 689.0, 689.1, 689.3, 689.4, 689.5, 
689.6, 689.8, 689.9, 690.0, 690.2, 690.3, 690.4, 690.5, 690.7, 690.8, 690.9, 691.0, 
691.2, 691.3, 691.4, 691.6, 691.7, 691.8, 691.9, 692.1, 692.2, 692.3, 692.4, 692.6, 
692.7, 692.8, 693.0, 693.1, 693.2, 693.3, 693.5, 693.6, 693.7, 693.8, 694.0, 694.1, 
694.2, 694.4, 694.5, 694.6, 694.7, 694.9, 695.0, 695.1, 695.2, 695.4, 695.5, 695.6, 
695.8, 695.9, 696.0, 696.1, 696.3, 696.4, 696.5, 696.6, 696.8, 696.9, 697.0, 697.2, 
697.3, 697.4, 697.5, 697.7, 697.8, 697.9, 698.0, 698.2, 698.3, 698.4, 698.6, 698.7, 
698.8, 698.9, 699.1, 699.2, 699.3, 699.5, 699.6, 699.7, 699.8, 700.0, 700.1, 700.2, 
700.3, 700.5, 700.6, 700.7, 700.9, 701.0, 701.1, 701.2, 701.4, 701.5, 701.6, 701.7, 
701.9, 702.0, 702.1, 702.3, 702.4, 702.5, 702.6, 702.8, 702.9, 703.0, 703.1, 703.3, 
703.4, 703.5, 703.7, 703.8, 703.9, 704.0, 704.2, 704.3, 704.4, 704.5, 704.7, 704.8, 
704.9, 705.1, 705.2, 705.3, 705.4, 705.6, 705.7, 705.8, 705.9, 706.1, 706.2, 706.3, 
706.5, 706.6, 706.7, 706.8, 707.0, 707.1, 707.2, 707.3, 707.5, 707.6, 707.7, 707.9, 
708.0, 708.1, 708.2, 708.4, 708.5, 708.6, 708.7, 708.9, 709.0, 709.1, 709.3, 709.4, 
709.5, 709.6, 709.8, 709.9, 710.0, 710.1, 710.3, 710.4, 710.5, 710.7, 710.8, 710.9, 
711.0, 711.2, 711.3, 711.4, 711.5, 711.7, 711.8, 711.9, 712.1, 712.2, 712.3, 712.4, 
712.6, 712.7, 712.8, 712.9, 713.1, 713.2, 713.3, 713.5, 713.6, 713.7, 713.8, 714.0, 
714.1, 714.2, 714.4, 714.5, 714.6, 714.7, 714.9, 715.0, 715.1, 715.2, 715.4, 715.5, 
715.6, 715.8, 715.9, 716.0, 716.1, 716.3, 716.4, 716.5, 716.6, 716.8, 716.9, 717.0, 
717.2, 717.3, 717.4, 717.5, 717.7, 717.8, 717.9, 718.0, 718.2, 718.3, 718.4, 718.6, 
718.7, 718.8, 718.9, 719.1, 719.2, 719.3, 719.4, 719.6, 719.7, 719.8, 720.0, 720.1, 
720.2, 720.3, 720.5, 720.6, 720.7, 720.8, 721.0, 721.1, 721.2, 721.4, 721.5, 721.6, 
721.7, 721.9, 722.0, 722.1, 722.2, 722.4, 722.5, 722.6, 722.8, 722.9, 723.0, 723.1, 
723.3, 723.4, 723.5, 723.6, 723.8, 723.9, 724.0, 724.2, 724.3, 724.4, 724.5, 724.7, 
724.8, 724.9, 725.0, 725.2, 725.3, 725.4, 725.6, 725.7, 725.8, 725.9, 726.1, 726.2, 
726.3, 726.4, 726.6, 726.7, 726.8, 727.0, 727.1, 727.2, 727.3, 727.5, 727.6, 727.7, 
727.8, 728.0, 728.1, 728.2, 728.4, 728.5, 728.6, 728.7, 728.9, 729.0, 729.1, 729.2, 
729.4, 729.5, 729.6, 729.8, 729.9, 730.0, 730.1, 730.3, 730.4, 730.5, 730.6, 730.8, 
730.9, 731.0, 731.2, 731.3, 731.4, 731.5, 731.7, 731.8, 731.9, 732.0, 732.2, 732.3, 
732.4, 732.6, 732.7, 732.8, 732.9, 733.1, 733.2, 733.3, 733.4, 733.6, 733.7, 733.8, 
734.0, 734.1, 734.2, 734.3, 734.5, 734.6, 734.7, 734.8, 735.0, 735.1, 735.2, 735.4, 
735.5, 735.6, 735.7, 735.9, 736.0, 736.1, 736.2, 736.4, 736.5, 736.6, 736.8, 736.9, 
737.0, 737.1, 737.3, 737.4, 737.5, 737.6, 737.8, 737.9, 738.0, 738.2, 738.3, 738.4, 
738.5, 738.7, 738.8, 738.9, 739.0, 739.2, 739.3, 739.4, 739.6, 739.7, 739.8, 739.9, 
740.1, 740.2, 740.3, 740.4, 740.6, 740.7, 740.8, 741.0, 741.1, 741.2, 741.3, 741.5, 
741.6, 741.7, 741.8, 742.0, 742.1, 742.2, 742.4, 742.5, 742.6, 742.7, 742.9, 743.0, 
743.1, 743.2, 743.4, 743.5, 743.6, 743.8, 743.9, 744.0, 744.1, 744.3, 744.4, 744.5, 
744.6, 744.8, 744.9, 745.0, 745.2, 745.3, 745.4, 745.5, 745.7, 745.8, 745.9, 746.0, 
746.2, 746.3, 746.4, 746.6, 746.7, 746.8, 746.9, 747.1, 747.2, 747.3, 747.4, 747.6, 
747.7, 747.8, 748.0, 748.1, 748.2, 748.3, 748.5, 748.6, 748.7, 748.8, 749.0, 749.1, 
749.2, 749.4, 749.5, 749.6, 749.7, 749.9, 750.0, 750.1, 750.2, 750.4, 750.5, 750.6, 
750.8, 750.9, 751.0, 751.1, 751.3, 751.4, 751.5, 751.6, 751.8, 751.9, 752.0, 752.2, 
752.3, 752.4, 752.5, 752.7, 752.8, 752.9, 753.0, 753.2, 753.3, 753.4, 753.6, 753.7, 
753.8, 753.9, 754.1, 754.2, 754.3, 754.4, 754.6, 754.7, 754.8, 755.0, 755.1, 755.2, 
755.3, 755.5, 755.6, 755.7, 755.8, 756.0, 756.1, 756.2, 756.4, 756.5, 756.6, 756.7, 
756.9, 757.0, 757.1, 757.2, 757.4, 757.5, 757.6, 757.8, 757.9, 758.0, 758.1, 758.3, 
758.4, 758.5, 758.6, 758.8, 758.9, 759.0, 759.1, 759.3, 759.4, 759.5, 759.7, 759.8, 
759.9, 760.0, 760.2, 760.3, 760.4, 760.5, 760.7, 760.8, 760.9, 761.1, 761.2, 761.3, 
761.4, 761.6, 761.7, 761.8, 761.9, 762.1, 762.2, 762.3, 762.5, 762.6, 762.7, 762.8, 
763.0, 763.1, 763.2, 763.3, 763.5, 763.6, 763.7, 763.9, 764.0, 764.1, 764.2, 764.4, 
764.5, 764.6, 764.7, 764.9, 765.0, 765.1, 765.3, 765.4, 765.5, 765.6, 765.8, 765.9, 
766.0, 766.1, 766.3, 766.4, 766.5, 766.7, 766.8, 766.9, 767.0, 767.2, 767.3, 767.4, 
767.5, 767.7, 767.8, 767.9, 768.1, 768.2, 768.3, 768.4, 768.6, 768.7, 768.8, 768.9, 
769.1, 769.2, 769.3, 769.5, 769.6, 769.7, 769.8, 770.0, 770.1, 770.2, 770.3, 770.5, 
770.6, 770.7, 770.9, 771.0, 771.1, 771.2, 771.4, 771.5, 771.6, 771.7, 771.9, 772.0, 
772.1, 772.3, 772.4, 772.5, 772.6, 772.8, 772.9, 773.0, 773.1, 773.3, 773.4, 773.5, 
773.7, 773.8, 773.9, 774.0, 774.2, 774.3, 774.4, 774.5, 774.7, 774.8, 774.9, 775.1, 
775.2, 775.3, 775.4, 775.6, 775.7, 775.8, 775.9, 776.1, 776.2, 776.3, 776.5, 776.6, 
776.7, 776.8, 777.0, 777.1, 777.2, 777.3, 777.5, 777.6, 777.7, 777.9, 778.0, 778.1, 
778.2, 778.4, 778.5, 778.6, 778.7, 778.9, 779.0, 779.1, 779.3, 779.4, 779.5, 779.6, 
779.8, 779.9, 780.0, 780.1, 780.3, 780.4, 780.5, 780.7, 780.8, 780.9, 781.0, 781.2, 
781.3, 781.4, 781.5, 781.7, 781.8, 781.9, 782.1, 782.2, 782.3, 782.4, 782.6, 782.7, 
782.8, 782.9, 783.1, 783.2, 783.3, 783.5, 783.6, 783.7, 783.8, 784.0, 784.1, 784.2, 
784.3, 784.5, 784.6, 784.7, 784.9, 785.0, 785.1, 785.2, 785.4, 785.5, 785.6, 785.7, 
785.9, 786.0, 786.1, 786.3, 786.4, 786.5, 786.6, 786.8, 786.9, 787.0, 787.2, 787.3, 
787.4, 787.5, 787.7, 787.8, 787.9, 788.0, 788.2, 788.3, 788.4, 788.6, 788.7, 788.8, 
788.9, 789.1, 789.2, 789.3, 789.4, 789.6, 789.7, 789.8, 790.0, 790.1, 790.2, 790.3, 
790.5, 790.6, 790.7, 790.8, 791.0, 791.1, 791.2, 791.4, 791.5, 791.6, 791.7, 791.9, 
792.0, 792.1, 792.2, 792.4, 792.5, 792.6, 792.8, 792.9, 793.0, 793.1, 793.3, 793.4, 
793.5, 793.6, 793.8, 793.9, 794.0, 794.2, 794.3, 794.4, 794.5, 794.7, 794.8, 794.9, 
795.0, 795.2, 795.3, 795.4, 795.6, 795.7, 795.8, 795.9, 796.1, 796.2, 796.3, 796.4, 
796.6, 796.7, 796.8, 797.0, 797.1, 797.2, 797.3, 797.5, 797.6, 797.7, 797.8, 798.0, 
798.1, 798.2, 798.4, 798.5, 798.6, 798.7, 798.9, 799.0, 799.1, 799.2, 799.4, 799.5, 
799.6, 799.8, 799.9, 800.0, 800.1, 800.3, 800.4, 800.5, 800.6, 800.8, 800.9, 801.0, 
801.2, 801.3, 801.4, 801.5, 801.7, 801.8, 801.9, 802.0, 802.2, 802.3, 802.4, 802.6, 
802.7, 802.8, 802.9, 803.1, 803.2, 803.3, 803.4, 803.6, 803.7, 803.8, 804.0, 804.1, 
804.2, 804.3, 804.5, 804.6, 804.7, 804.8, 805.0, 805.1, 805.2, 805.4, 805.5, 805.6, 
805.7, 805.9, 806.0, 806.1, 806.3, 806.4, 806.5, 806.6, 806.8, 806.9, 807.0, 807.1, 
807.3, 807.4, 807.5, 807.7, 807.8, 807.9, 808.0, 808.2, 808.3, 808.4, 808.5, 808.7, 
808.8, 808.9, 809.1, 809.2, 809.3, 809.4, 809.6, 809.7, 809.8, 809.9, 810.1, 810.2, 
810.3, 810.5, 810.6, 810.7, 810.8, 811.0, 811.1, 811.2, 811.3, 811.5, 811.6, 811.7, 
811.9, 812.0, 812.1, 812.2, 812.4, 812.5, 812.6, 812.7, 812.9, 813.0, 813.1, 813.3, 
813.4, 813.5, 813.6, 813.8, 813.9, 814.0, 814.1, 814.3, 814.4, 814.5, 814.7, 814.8, 
814.9, 815.0, 815.2, 815.3, 815.4, 815.6, 815.7, 815.8, 815.9, 816.1, 816.2, 816.3, 
816.4, 816.6, 816.7, 816.8, 817.0, 817.1, 817.2, 817.3, 817.5, 817.6, 817.7, 817.8, 
818.0, 818.1, 818.2, 818.4, 818.5, 818.6, 818.7, 818.9, 819.0, 819.1, 819.2, 819.4, 
819.5, 819.6, 819.8, 819.9, 820.0, 820.1, 820.3, 820.4, 820.5, 820.6, 820.8, 820.9, 
821.0, 821.2, 821.3, 821.4, 821.5, 821.7, 821.8, 821.9, 822.0, 822.2, 822.3, 822.4, 
822.6, 822.7, 822.8, 822.9, 823.1, 823.2, 823.3, 823.5, 823.6, 823.7, 823.8, 824.0, 
824.1, 824.2, 824.3, 824.5, 824.6, 824.7, 824.9, 825.0, 825.1, 825.2, 825.4, 825.5, 
825.6, 825.7, 825.9, 826.0, 826.1, 826.3, 826.4, 826.5, 826.6, 826.8, 826.9, 827.0, 
827.1, 827.3, 827.4, 827.5, 827.7, 827.8, 827.9, 828.0, 828.2, 828.3, 828.4, 828.5, 
828.7, 828.8, 828.9, 829.1, 829.2, 829.3, 829.4, 829.6, 829.7, 829.8, 830.0, 830.1, 
830.2, 830.3, 830.5, 830.6, 830.7, 830.8, 831.0, 831.1, 831.2, 831.4, 831.5, 831.6, 
831.7, 831.9, 832.0, 832.1, 832.2, 832.4, 832.5, 832.6, 832.8, 832.9, 833.0, 833.1, 
833.3, 833.4, 833.5, 833.6, 833.8, 833.9, 834.0, 834.2, 834.3, 834.4, 834.5, 834.7, 
834.8, 834.9, 835.1, 835.2, 835.3, 835.4, 835.6, 835.7, 835.8, 835.9, 836.1, 836.2, 
836.3, 836.5, 836.6, 836.7, 836.8, 837.0, 837.1, 837.2, 837.3, 837.5, 837.6, 837.7, 
837.9, 838.0, 838.1, 838.2, 838.4, 838.5, 838.6, 838.8, 838.9, 839.0, 839.1, 839.3, 
839.4, 839.5, 839.6, 839.8, 839.9, 840.0, 840.2, 840.3, 840.4, 840.5, 840.7, 840.8, 
840.9, 841.0, 841.2, 841.3, 841.4, 841.6, 841.7, 841.8, 841.9, 842.1, 842.2, 842.3, 
842.5, 842.6, 842.7, 842.8, 843.0, 843.1, 843.2, 843.3, 843.5, 843.6, 843.7, 843.9, 
844.0, 844.1, 844.2, 844.4, 844.5, 844.6, 844.7, 844.9, 845.0, 845.1, 845.3, 845.4, 
845.5, 845.6, 845.8, 845.9, 846.0, 846.2, 846.3, 846.4, 846.5, 846.7, 846.8, 846.9, 
847.0, 847.2, 847.3, 847.4, 847.6, 847.7, 847.8, 847.9, 848.1, 848.2, 848.3, 848.4, 
848.6, 848.7, 848.8, 849.0, 849.1, 849.2, 849.3, 849.5, 849.6, 849.7, 849.9, 850.0, 
850.1, 850.2, 850.4, 850.5, 850.6, 850.7, 850.9, 851.0, 851.1, 851.3, 851.4, 851.5, 
851.6, 851.8, 851.9, 852.0, 852.1, 852.3, 852.4, 852.5, 852.7, 852.8, 852.9, 853.0, 
853.2, 853.3, 853.4, 853.6, 853.7, 853.8, 853.9, 854.1, 854.2, 854.3, 854.4, 854.6, 
854.7, 854.8, 855.0, 855.1, 855.2, 855.3, 855.5, 855.6, 855.7, 855.9, 856.0, 856.1, 
856.2, 856.4, 856.5, 856.6, 856.7, 856.9, 857.0, 857.1, 857.3, 857.4, 857.5, 857.6, 
857.8, 857.9, 858.0, 858.1, 858.3, 858.4, 858.5, 858.7, 858.8, 858.9, 859.0, 859.2, 
859.3, 859.4, 859.6, 859.7, 859.8, 859.9, 860.1, 860.2, 860.3, 860.4, 860.6, 860.7, 
860.8, 861.0, 861.1, 861.2, 861.3, 861.5, 861.6, 861.7, 861.9, 862.0, 862.1, 862.2, 
862.4, 862.5, 862.6, 862.7, 862.9, 863.0, 863.1, 863.3, 863.4, 863.5, 863.6, 863.8, 
863.9, 864.0, 864.2, 864.3, 864.4, 864.5, 864.7, 864.8, 864.9, 865.0, 865.2, 865.3, 
865.4, 865.6, 865.7, 865.8, 865.9, 866.1, 866.2, 866.3, 866.5, 866.6, 866.7, 866.8, 
867.0, 867.1, 867.2, 867.3, 867.5, 867.6, 867.7, 867.9, 868.0, 868.1, 868.2, 868.4, 
868.5, 868.6, 868.8, 868.9, 869.0, 869.1, 869.3, 869.4, 869.5, 869.6, 869.8, 869.9, 
870.0, 870.2, 870.3, 870.4, 870.5, 870.7, 870.8, 870.9, 871.1, 871.2, 871.3, 871.4, 
871.6, 871.7, 871.8, 871.9, 872.1, 872.2, 872.3, 872.5, 872.6, 872.7, 872.8, 873.0, 
873.1, 873.2, 873.4, 873.5, 873.6, 873.7, 873.9, 874.0, 874.1, 874.2, 874.4, 874.5, 
874.6, 874.8, 874.9, 875.0, 875.1, 875.3, 875.4, 875.5, 875.7, 875.8, 875.9, 876.0, 
876.2, 876.3, 876.4, 876.5, 876.7, 876.8, 876.9, 877.1, 877.2, 877.3, 877.4, 877.6, 
877.7, 877.8, 878.0, 878.1, 878.2, 878.3, 878.5, 878.6, 878.7, 878.8, 879.0, 879.1, 
879.2, 879.4, 879.5, 879.6, 879.7, 879.9, 880.0, 880.1, 880.3, 880.4, 880.5, 880.6, 
880.8, 880.9, 881.0, 881.2, 881.3, 881.4, 881.5, 881.7, 881.8, 881.9, 882.0, 882.2, 
882.3, 882.4, 882.6, 882.7, 882.8, 882.9, 883.1, 883.2, 883.3, 883.5, 883.6, 883.7, 
883.8, 884.0, 884.1, 884.2, 884.3, 884.5, 884.6, 884.7, 884.9, 885.0, 885.1, 885.2, 
885.4, 885.5, 885.6, 885.8, 885.9, 886.0, 886.1, 886.3, 886.4, 886.5, 886.7, 886.8, 
886.9, 887.0, 887.2, 887.3, 887.4, 887.5, 887.7, 887.8, 887.9, 888.1, 888.2, 888.3, 
888.4, 888.6, 888.7, 888.8, 889.0, 889.1, 889.2, 889.3, 889.5, 889.6, 889.7, 889.9, 
890.0, 890.1, 890.2, 890.4, 890.5, 890.6, 890.7, 890.9, 891.0, 891.1, 891.3, 891.4, 
891.5, 891.6, 891.8, 891.9, 892.0, 892.2, 892.3, 892.4, 892.5, 892.7, 892.8, 892.9, 
893.1, 893.2, 893.3, 893.4, 893.6, 893.7, 893.8, 893.9, 894.1, 894.2, 894.3, 894.5, 
894.6, 894.7, 894.8, 895.0, 895.1, 895.2, 895.4, 895.5, 895.6, 895.7, 895.9, 896.0, 
896.1, 896.3, 896.4, 896.5, 896.6, 896.8, 896.9, 897.0, 897.1, 897.3, 897.4, 897.5, 
897.7, 897.8, 897.9, 898.0, 898.2, 898.3, 898.4, 898.6, 898.7, 898.8, 898.9, 899.1, 
899.2, 899.3, 899.5, 899.6, 899.7, 899.8, 900.0, 900.1, 900.2, 900.3, 900.5, 900.6, 
900.7, 900.9, 901.0, 901.1, 901.2, 901.4, 901.5, 901.6, 901.8, 901.9, 902.0, 902.1, 
902.3, 902.4, 902.5, 902.7, 902.8, 902.9, 903.0, 903.2, 903.3, 903.4, 903.6, 903.7, 
903.8, 903.9, 904.1, 904.2, 904.3, 904.4, 904.6, 904.7, 904.8, 905.0, 905.1, 905.2, 
905.3, 905.5, 905.6, 905.7, 905.9, 906.0, 906.1, 906.2, 906.4, 906.5, 906.6, 906.8, 
906.9, 907.0, 907.1, 907.3, 907.4, 907.5, 907.7, 907.8, 907.9, 908.0, 908.2, 908.3, 
908.4, 908.5, 908.7, 908.8, 908.9, 909.1, 909.2, 909.3, 909.4, 909.6, 909.7, 909.8, 
910.0, 910.1, 910.2, 910.3, 910.5, 910.6, 910.7, 910.9, 911.0, 911.1, 911.2, 911.4, 
911.5, 911.6, 911.8, 911.9, 912.0, 912.1, 912.3, 912.4, 912.5, 912.7, 912.8, 912.9, 
913.0, 913.2, 913.3, 913.4, 913.5, 913.7, 913.8, 913.9, 914.1, 914.2, 914.3, 914.4, 
914.6, 914.7, 914.8, 915.0, 915.1, 915.2, 915.3, 915.5, 915.6, 915.7, 915.9, 916.0, 
916.1, 916.2, 916.4, 916.5, 916.6, 916.8, 916.9, 917.0, 917.1, 917.3, 917.4, 917.5, 
917.7, 917.8, 917.9, 918.0, 918.2, 918.3, 918.4, 918.6, 918.7, 918.8, 918.9, 919.1, 
919.2, 919.3, 919.5, 919.6, 919.7, 919.8, 920.0, 920.1, 920.2, 920.3, 920.5, 920.6, 
920.7, 920.9, 921.0, 921.1, 921.2, 921.4, 921.5, 921.6, 921.8, 921.9, 922.0, 922.1, 
922.3, 922.4, 922.5, 922.7, 922.8, 922.9, 923.0, 923.2, 923.3, 923.4, 923.6, 923.7, 
923.8, 923.9, 924.1, 924.2, 924.3, 924.5, 924.6, 924.7, 924.8, 925.0, 925.1, 925.2, 
925.4, 925.5, 925.6, 925.7, 925.9, 926.0, 926.1, 926.3, 926.4, 926.5, 926.6, 926.8, 
926.9, 927.0, 927.2, 927.3, 927.4, 927.5, 927.7, 927.8, 927.9, 928.1, 928.2, 928.3, 
928.4, 928.6, 928.7, 928.8, 928.9, 929.1, 929.2, 929.3, 929.5, 929.6, 929.7, 929.8, 
930.0, 930.1, 930.2, 930.4, 930.5, 930.6, 930.7, 930.9, 931.0, 931.1, 931.3, 931.4, 
931.5, 931.6, 931.8, 931.9, 932.0, 932.2, 932.3, 932.4, 932.5, 932.7, 932.8, 932.9, 
933.1, 933.2, 933.3, 933.4, 933.6, 933.7, 933.8, 934.0, 934.1, 934.2, 934.3, 934.5, 
934.6, 934.7, 934.9, 935.0, 935.1, 935.2, 935.4, 935.5, 935.6, 935.8, 935.9, 936.0, 
936.1, 936.3, 936.4, 936.5, 936.7, 936.8, 936.9, 937.0, 937.2, 937.3, 937.4, 937.6, 
937.7, 937.8, 937.9, 938.1, 938.2, 938.3, 938.5, 938.6, 938.7, 938.8, 939.0, 939.1, 
939.2, 939.4, 939.5, 939.6, 939.7, 939.9, 940.0, 940.1, 940.3, 940.4, 940.5, 940.6, 
940.8, 940.9, 941.0, 941.2, 941.3, 941.4, 941.5, 941.7, 941.8, 941.9, 942.1, 942.2, 
942.3, 942.4, 942.6, 942.7, 942.8, 943.0, 943.1, 943.2, 943.3, 943.5, 943.6, 943.7, 
943.9, 944.0, 944.1, 944.2, 944.4, 944.5, 944.6, 944.8, 944.9, 945.0, 945.1, 945.3, 
945.4, 945.5, 945.7, 945.8, 945.9, 946.0, 946.2, 946.3, 946.4, 946.6, 946.7, 946.8, 
946.9, 947.1, 947.2, 947.3, 947.5, 947.6, 947.7, 947.8, 948.0, 948.1, 948.2, 948.4, 
948.5, 948.6, 948.7, 948.9, 949.0, 949.1, 949.3, 949.4, 949.5, 949.6, 949.8, 949.9, 
950.0, 950.2, 950.3, 950.4, 950.5, 950.7, 950.8, 950.9, 951.1, 951.2, 951.3, 951.5, 
951.6, 951.7, 951.8, 952.0, 952.1, 952.2, 952.4, 952.5, 952.6, 952.7, 952.9, 953.0, 
953.1, 953.3, 953.4, 953.5, 953.6, 953.8, 953.9, 954.0, 954.2, 954.3, 954.4, 954.5, 
954.7, 954.8, 954.9, 955.1, 955.2, 955.3, 955.4, 955.6, 955.7, 955.8, 956.0, 956.1, 
956.2, 956.3, 956.5, 956.6, 956.7, 956.9, 957.0, 957.1, 957.2, 957.4, 957.5, 957.6, 
957.8, 957.9, 958.0, 958.1, 958.3, 958.4, 958.5, 958.7, 958.8, 958.9, 959.0, 959.2, 
959.3, 959.4, 959.6, 959.7, 959.8, 960.0, 960.1, 960.2, 960.3, 960.5, 960.6, 960.7, 
960.9, 961.0, 961.1, 961.2, 961.4, 961.5, 961.6, 961.8, 961.9, 962.0, 962.1, 962.3, 
962.4, 962.5, 962.7, 962.8, 962.9, 963.0, 963.2, 963.3, 963.4, 963.6, 963.7, 963.8, 
963.9, 964.1, 964.2, 964.3, 964.5, 964.6, 964.7, 964.8, 965.0, 965.1, 965.2, 965.4, 
965.5, 965.6, 965.8, 965.9, 966.0, 966.1, 966.3, 966.4, 966.5, 966.7, 966.8, 966.9, 
967.0, 967.2, 967.3, 967.4, 967.6, 967.7, 967.8, 967.9, 968.1, 968.2, 968.3, 968.5, 
968.6, 968.7, 968.8, 969.0, 969.1, 969.2, 969.4, 969.5, 969.6, 969.7, 969.9, 970.0, 
970.1, 970.3, 970.4, 970.5, 970.7, 970.8, 970.9, 971.0, 971.2, 971.3, 971.4, 971.6, 
971.7, 971.8, 971.9, 972.1, 972.2, 972.3, 972.5, 972.6, 972.7, 972.8, 973.0, 973.1, 
973.2, 973.4, 973.5, 973.6, 973.7, 973.9, 974.0, 974.1, 974.3, 974.4, 974.5, 974.7, 
974.8, 974.9, 975.0, 975.2, 975.3, 975.4, 975.6, 975.7, 975.8, 975.9, 976.1, 976.2, 
976.3, 976.5, 976.6, 976.7, 976.8, 977.0, 977.1, 977.2, 977.4, 977.5, 977.6, 977.8, 
977.9, 978.0, 978.1, 978.3, 978.4, 978.5, 978.7, 978.8, 978.9, 979.0, 979.2, 979.3, 
979.4, 979.6, 979.7, 979.8, 979.9, 980.1, 980.2, 980.3, 980.5, 980.6, 980.7, 980.9, 
981.0, 981.1, 981.2, 981.4, 981.5, 981.6, 981.8, 981.9, 982.0, 982.1, 982.3, 982.4, 
982.5, 982.7, 982.8, 982.9, 983.0, 983.2, 983.3, 983.4, 983.6, 983.7, 983.8, 984.0, 
984.1, 984.2, 984.3, 984.5, 984.6, 984.7, 984.9, 985.0, 985.1, 985.2, 985.4, 985.5, 
985.6, 985.8, 985.9, 986.0, 986.1, 986.3, 986.4, 986.5, 986.7, 986.8, 986.9, 987.1, 
987.2, 987.3, 987.4, 987.6, 987.7, 987.8, 988.0, 988.1, 988.2, 988.3, 988.5, 988.6, 
988.7, 988.9, 989.0, 989.1, 989.3, 989.4, 989.5, 989.6, 989.8, 989.9, 990.0, 990.2, 
990.3, 990.4, 990.5, 990.7, 990.8, 990.9, 991.1, 991.2, 991.3, 991.5, 991.6, 991.7, 
991.8, 992.0, 992.1, 992.2, 992.4, 992.5, 992.6, 992.7, 992.9, 993.0, 993.1, 993.3, 
993.4, 993.5, 993.7, 993.8, 993.9, 994.0, 994.2, 994.3, 994.4, 994.6, 994.7, 994.8, 
994.9, 995.1, 995.2, 995.3, 995.5, 995.6, 995.7, 995.9, 996.0, 996.1, 996.2, 996.4, 
996.5, 996.6, 996.8, 996.9, 997.0, 997.1, 997.3, 997.4, 997.5, 997.7, 997.8, 997.9, 
998.1, 998.2, 998.3, 998.4, 998.6, 998.7, 998.8, 999.0, 999.1, 999.2, 999.3, 999.5, 
999.6, 999.7, 999.9, 1000.0, 1000.1, 1000.3, 1000.4, 1000.5, 1000.6, 1000.8, 1000.9, 1001.0, 
1001.2, 1001.3, 1001.4, 1001.5, 1001.7, 1001.8, 1001.9, 1002.1, 1002.2, 1002.3, 1002.5, 1002.6, 
1002.7, 1002.8, 1003.0, 1003.1, 1003.2, 1003.4, 1003.5, 1003.6, 1003.8, 1003.9, 1004.0, 1004.1, 
1004.3, 1004.4, 1004.5, 1004.7, 1004.8, 1004.9, 1005.0, 1005.2, 1005.3, 1005.4, 1005.6, 1005.7, 
1005.8, 1006.0, 1006.1, 1006.2, 1006.3, 1006.5, 1006.6, 1006.7, 1006.9, 1007.0, 1007.1, 1007.2, 
1007.4, 1007.5, 1007.6, 1007.8, 1007.9, 1008.0, 1008.2, 1008.3, 1008.4, 1008.5, 1008.7, 1008.8, 
1008.9, 1009.1, 1009.2, 1009.3, 1009.5, 1009.6, 1009.7, 1009.8, 1010.0, 1010.1, 1010.2, 1010.4, 
1010.5, 1010.6, 1010.8, 1010.9, 1011.0, 1011.1, 1011.3, 1011.4, 1011.5, 1011.7, 1011.8, 1011.9, 
1012.0, 1012.2, 1012.3, 1012.4, 1012.6, 1012.7, 1012.8, 1013.0, 1013.1, 1013.2, 1013.3, 1013.5, 
1013.6, 1013.7, 1013.9, 1014.0, 1014.1, 1014.3, 1014.4, 1014.5, 1014.6, 1014.8, 1014.9, 1015.0, 
1015.2, 1015.3, 1015.4, 1015.6, 1015.7, 1015.8, 1015.9, 1016.1, 1016.2, 1016.3, 1016.5, 1016.6, 
1016.7, 1016.8, 1017.0, 1017.1, 1017.2, 1017.4, 1017.5, 1017.6, 1017.8, 1017.9, 1018.0, 1018.1, 
1018.3, 1018.4, 1018.5, 1018.7, 1018.8, 1018.9, 1019.1, 1019.2, 1019.3, 1019.4, 1019.6, 1019.7, 
1019.8, 1020.0, 1020.1, 1020.2, 1020.4, 1020.5, 1020.6, 1020.7, 1020.9, 1021.0, 1021.1, 1021.3, 
1021.4, 1021.5, 1021.7, 1021.8, 1021.9, 1022.0, 1022.2, 1022.3, 1022.4, 1022.6, 1022.7, 1022.8, 
1023.0, 1023.1, 1023.2, 1023.3, 1023.5, 1023.6, 1023.7, 1023.9, 1024.0, 1024.1, 1024.3, 1024.4, 
1024.5, 1024.6, 1024.8, 1024.9, 1025.0, 1025.2, 1025.3, 1025.4, 1025.6, 1025.7, 1025.8, 1025.9, 
1026.1, 1026.2, 1026.3, 1026.5, 1026.6, 1026.7, 1026.9, 1027.0, 1027.1, 1027.2, 1027.4, 1027.5, 
1027.6, 1027.8, 1027.9, 1028.0, 1028.2, 1028.3, 1028.4, 1028.5, 1028.7, 1028.8, 1028.9, 1029.1, 
1029.2, 1029.3, 1029.5, 1029.6, 1029.7, 1029.8, 1030.0, 1030.1, 1030.2, 1030.4, 1030.5, 1030.6, 
1030.8, 1030.9, 1031.0, 1031.1, 1031.3, 1031.4, 1031.5, 1031.7, 1031.8, 1031.9, 1032.1, 1032.2, 
1032.3, 1032.4, 1032.6, 1032.7, 1032.8, 1033.0, 1033.1, 1033.2, 1033.4, 1033.5, 1033.6, 1033.7, 
1033.9, 1034.0, 1034.1, 1034.3, 1034.4, 1034.5, 1034.7, 1034.8, 1034.9, 1035.0, 1035.2, 1035.3, 
1035.4, 1035.6, 1035.7, 1035.8, 1036.0, 1036.1, 1036.2, 1036.3, 1036.5, 1036.6, 1036.7, 1036.9, 
1037.0, 1037.1, 1037.3, 1037.4, 1037.5, 1037.7, 1037.8, 1037.9, 1038.0, 1038.2, 1038.3, 1038.4, 
1038.6, 1038.7, 1038.8, 1039.0, 1039.1, 1039.2, 1039.3, 1039.5, 1039.6, 1039.7, 1039.9, 1040.0, 
1040.1, 1040.3, 1040.4, 1040.5, 1040.6, 1040.8, 1040.9, 1041.0, 1041.2, 1041.3, 1041.4, 1041.6, 
1041.7, 1041.8, 1041.9, 1042.1, 1042.2, 1042.3, 1042.5, 1042.6, 1042.7, 1042.9, 1043.0, 1043.1, 
1043.3, 1043.4, 1043.5, 1043.6, 1043.8, 1043.9, 1044.0, 1044.2, 1044.3, 1044.4, 1044.6, 1044.7, 
1044.8, 1044.9, 1045.1, 1045.2, 1045.3, 1045.5, 1045.6, 1045.7, 1045.9, 1046.0, 1046.1, 1046.3, 
1046.4, 1046.5, 1046.6, 1046.8, 1046.9, 1047.0, 1047.2, 1047.3, 1047.4, 1047.6, 1047.7, 1047.8, 
1047.9, 1048.1, 1048.2, 1048.3, 1048.5, 1048.6, 1048.7, 1048.9, 1049.0, 1049.1, 1049.3, 1049.4, 
1049.5, 1049.6, 1049.8, 1049.9, 1050.0, 1050.2, 1050.3, 1050.4, 1050.6, 1050.7, 1050.8, 1050.9, 
1051.1, 1051.2, 1051.3, 1051.5, 1051.6, 1051.7, 1051.9, 1052.0, 1052.1, 1052.3, 1052.4, 1052.5, 
1052.6, 1052.8, 1052.9, 1053.0, 1053.2, 1053.3, 1053.4, 1053.6, 1053.7, 1053.8, 1053.9, 1054.1, 
1054.2, 1054.3, 1054.5, 1054.6, 1054.7, 1054.9, 1055.0, 1055.1, 1055.3, 1055.4, 1055.5, 1055.6, 
1055.8, 1055.9, 1056.0, 1056.2, 1056.3, 1056.4, 1056.6, 1056.7, 1056.8, 1057.0, 1057.1, 1057.2, 
1057.3, 1057.5, 1057.6, 1057.7, 1057.9, 1058.0, 1058.1, 1058.3, 1058.4, 1058.5, 1058.6, 1058.8, 
1058.9, 1059.0, 1059.2, 1059.3, 1059.4, 1059.6, 1059.7, 1059.8, 1060.0, 1060.1, 1060.2, 1060.3, 
1060.5, 1060.6, 1060.7, 1060.9, 1061.0, 1061.1, 1061.3, 1061.4, 1061.5, 1061.7, 1061.8, 1061.9, 
1062.0, 1062.2, 1062.3, 1062.4, 1062.6, 1062.7, 1062.8, 1063.0, 1063.1, 1063.2, 1063.4, 1063.5, 
1063.6, 1063.7, 1063.9, 1064.0, 1064.1, 1064.3, 1064.4, 1064.5, 1064.7, 1064.8, 1064.9, 1065.1, 
1065.2, 1065.3, 1065.4, 1065.6, 1065.7, 1065.8, 1066.0, 1066.1, 1066.2, 1066.4, 1066.5, 1066.6, 
1066.8, 1066.9, 1067.0, 1067.1, 1067.3, 1067.4, 1067.5, 1067.7, 1067.8, 1067.9, 1068.1, 1068.2, 
1068.3, 1068.5, 1068.6, 1068.7, 1068.8, 1069.0, 1069.1, 1069.2, 1069.4, 1069.5, 1069.6, 1069.8, 
1069.9, 1070.0, 1070.2, 1070.3, 1070.4, 1070.6, 1070.7, 1070.8, 1070.9, 1071.1, 1071.2, 1071.3, 
1071.5, 1071.6, 1071.7, 1071.9, 1072.0, 1072.1, 1072.3, 1072.4, 1072.5, 1072.6, 1072.8, 1072.9, 
1073.0, 1073.2, 1073.3, 1073.4, 1073.6, 1073.7, 1073.8, 1074.0, 1074.1, 1074.2, 1074.3, 1074.5, 
1074.6, 1074.7, 1074.9, 1075.0, 1075.1, 1075.3, 1075.4, 1075.5, 1075.7, 1075.8, 1075.9, 1076.1, 
1076.2, 1076.3, 1076.4, 1076.6, 1076.7, 1076.8, 1077.0, 1077.1, 1077.2, 1077.4, 1077.5, 1077.6, 
1077.8, 1077.9, 1078.0, 1078.1, 1078.3, 1078.4, 1078.5, 1078.7, 1078.8, 1078.9, 1079.1, 1079.2, 
1079.3, 1079.5, 1079.6, 1079.7, 1079.9, 1080.0, 1080.1, 1080.2, 1080.4, 1080.5, 1080.6, 1080.8, 
1080.9, 1081.0, 1081.2, 1081.3, 1081.4, 1081.6, 1081.7, 1081.8, 1082.0, 1082.1, 1082.2, 1082.3, 
1082.5, 1082.6, 1082.7, 1082.9, 1083.0, 1083.1, 1083.3, 1083.4, 1083.5, 1083.7, 1083.8, 1083.9, 
1084.1, 1084.2, 1084.3, 1084.4, 1084.6, 1084.7, 1084.8, 1085.0, 1085.1, 1085.2, 1085.4, 1085.5, 
1085.6, 1085.8, 1085.9, 1086.0, 1086.2, 1086.3, 1086.4, 1086.5, 1086.7, 1086.8, 1086.9, 1087.1, 
1087.2, 1087.3, 1087.5, 1087.6, 1087.7, 1087.9, 1088.0, 1088.1, 1088.3, 1088.4, 1088.5, 1088.6, 
1088.8, 1088.9, 1089.0, 1089.2, 1089.3, 1089.4, 1089.6, 1089.7, 1089.8, 1090.0, 1090.1, 1090.2, 
1090.4, 1090.5, 1090.6, 1090.7, 1090.9, 1091.0, 1091.1, 1091.3, 1091.4, 1091.5, 1091.7, 1091.8, 
1091.9, 1092.1, 1092.2, 1092.3, 1092.5, 1092.6, 1092.7, 1092.9, 1093.0, 1093.1, 1093.2, 1093.4, 
1093.5, 1093.6, 1093.8, 1093.9, 1094.0, 1094.2, 1094.3, 1094.4, 1094.6, 1094.7, 1094.8, 1095.0, 
1095.1, 1095.2, 1095.3, 1095.5, 1095.6, 1095.7, 1095.9, 1096.0, 1096.1, 1096.3, 1096.4, 1096.5, 
1096.7, 1096.8, 1096.9, 1097.1, 1097.2, 1097.3, 1097.5, 1097.6, 1097.7, 1097.8, 1098.0, 1098.1, 
1098.2, 1098.4, 1098.5, 1098.6, 1098.8, 1098.9, 1099.0, 1099.2, 1099.3, 1099.4, 1099.6, 1099.7, 
1099.8, 1100.0, 1100.1, 1100.2, 1100.3, 1100.5, 1100.6, 1100.7, 1100.9, 1101.0, 1101.1, 1101.3, 
1101.4, 1101.5, 1101.7, 1101.8, 1101.9, 1102.1, 1102.2, 1102.3, 1102.5, 1102.6, 1102.7, 1102.9, 
1103.0, 1103.1, 1103.2, 1103.4, 1103.5, 1103.6, 1103.8, 1103.9, 1104.0, 1104.2, 1104.3, 1104.4, 
1104.6, 1104.7, 1104.8, 1105.0, 1105.1, 1105.2, 1105.4, 1105.5, 1105.6, 1105.7, 1105.9, 1106.0, 
1106.1, 1106.3, 1106.4, 1106.5, 1106.7, 1106.8, 1106.9, 1107.1, 1107.2, 1107.3, 1107.5, 1107.6, 
1107.7, 1107.9, 1108.0, 1108.1, 1108.3, 1108.4, 1108.5, 1108.6, 1108.8, 1108.9, 1109.0, 1109.2, 
1109.3, 1109.4, 1109.6, 1109.7, 1109.8, 1110.0, 1110.1, 1110.2, 1110.4, 1110.5, 1110.6, 1110.8, 
1110.9, 1111.0, 1111.2, 1111.3, 1111.4, 1111.5, 1111.7, 1111.8, 1111.9, 1112.1, 1112.2, 1112.3, 
1112.5, 1112.6, 1112.7, 1112.9, 1113.0, 1113.1, 1113.3, 1113.4, 1113.5, 1113.7, 1113.8, 1113.9, 
1114.1, 1114.2, 1114.3, 1114.5, 1114.6, 1114.7, 1114.8, 1115.0, 1115.1, 1115.2, 1115.4, 1115.5, 
1115.6, 1115.8, 1115.9, 1116.0, 1116.2, 1116.3, 1116.4, 1116.6, 1116.7, 1116.8, 1117.0, 1117.1, 
1117.2, 1117.4, 1117.5, 1117.6, 1117.8, 1117.9, 1118.0, 1118.1, 1118.3, 1118.4, 1118.5, 1118.7, 
1118.8, 1118.9, 1119.1, 1119.2, 1119.3, 1119.5, 1119.6, 1119.7, 1119.9, 1120.0, 1120.1, 1120.3, 
1120.4, 1120.5, 1120.7, 1120.8, 1120.9, 1121.1, 1121.2, 1121.3, 1121.5, 1121.6, 1121.7, 1121.8, 
1122.0, 1122.1, 1122.2, 1122.4, 1122.5, 1122.6, 1122.8, 1122.9, 1123.0, 1123.2, 1123.3, 1123.4, 
1123.6, 1123.7, 1123.8, 1124.0, 1124.1, 1124.2, 1124.4, 1124.5, 1124.6, 1124.8, 1124.9, 1125.0, 
1125.2, 1125.3, 1125.4, 1125.6, 1125.7, 1125.8, 1125.9, 1126.1, 1126.2, 1126.3, 1126.5, 1126.6, 
1126.7, 1126.9, 1127.0, 1127.1, 1127.3, 1127.4, 1127.5, 1127.7, 1127.8, 1127.9, 1128.1, 1128.2, 
1128.3, 1128.5, 1128.6, 1128.7, 1128.9, 1129.0, 1129.1, 1129.3, 1129.4, 1129.5, 1129.7, 1129.8, 
1129.9, 1130.0, 1130.2, 1130.3, 1130.4, 1130.6, 1130.7, 1130.8, 1131.0, 1131.1, 1131.2, 1131.4, 
1131.5, 1131.6, 1131.8, 1131.9, 1132.0, 1132.2, 1132.3, 1132.4, 1132.6, 1132.7, 1132.8, 1133.0, 
1133.1, 1133.2, 1133.4, 1133.5, 1133.6, 1133.8, 1133.9, 1134.0, 1134.2, 1134.3, 1134.4, 1134.6, 
1134.7, 1134.8, 1135.0, 1135.1, 1135.2, 1135.3, 1135.5, 1135.6, 1135.7, 1135.9, 1136.0, 1136.1, 
1136.3, 1136.4, 1136.5, 1136.7, 1136.8, 1136.9, 1137.1, 1137.2, 1137.3, 1137.5, 1137.6, 1137.7, 
1137.9, 1138.0, 1138.1, 1138.3, 1138.4, 1138.5, 1138.7, 1138.8, 1138.9, 1139.1, 1139.2, 1139.3, 
1139.5, 1139.6, 1139.7, 1139.9, 1140.0, 1140.1, 1140.3, 1140.4, 1140.5, 1140.7, 1140.8, 1140.9, 
1141.1, 1141.2, 1141.3, 1141.4, 1141.6, 1141.7, 1141.8, 1142.0, 1142.1, 1142.2, 1142.4, 1142.5, 
1142.6, 1142.8, 1142.9, 1143.0, 1143.2, 1143.3, 1143.4, 1143.6, 1143.7, 1143.8, 1144.0, 1144.1, 
1144.2, 1144.4, 1144.5, 1144.6, 1144.8, 1144.9, 1145.0, 1145.2, 1145.3, 1145.4, 1145.6, 1145.7, 
1145.8, 1146.0, 1146.1, 1146.2, 1146.4, 1146.5, 1146.6, 1146.8, 1146.9, 1147.0, 1147.2, 1147.3, 
1147.4, 1147.6, 1147.7, 1147.8, 1148.0, 1148.1, 1148.2, 1148.4, 1148.5, 1148.6, 1148.8, 1148.9, 
1149.0, 1149.2, 1149.3, 1149.4, 1149.6, 1149.7, 1149.8, 1150.0, 1150.1, 1150.2, 1150.3, 1150.5, 
1150.6, 1150.7, 1150.9, 1151.0, 1151.1, 1151.3, 1151.4, 1151.5, 1151.7, 1151.8, 1151.9, 1152.1, 
1152.2, 1152.3, 1152.5, 1152.6, 1152.7, 1152.9, 1153.0, 1153.1, 1153.3, 1153.4, 1153.5, 1153.7, 
1153.8, 1153.9, 1154.1, 1154.2, 1154.3, 1154.5, 1154.6, 1154.7, 1154.9, 1155.0, 1155.1, 1155.3, 
1155.4, 1155.5, 1155.7, 1155.8, 1155.9, 1156.1, 1156.2, 1156.3, 1156.5, 1156.6, 1156.7, 1156.9, 
1157.0, 1157.1, 1157.3, 1157.4, 1157.5, 1157.7, 1157.8, 1157.9, 1158.1, 1158.2, 1158.3, 1158.5, 
1158.6, 1158.7, 1158.9, 1159.0, 1159.1, 1159.3, 1159.4, 1159.5, 1159.7, 1159.8, 1159.9, 1160.1, 
1160.2, 1160.3, 1160.5, 1160.6, 1160.7, 1160.9, 1161.0, 1161.1, 1161.3, 1161.4, 1161.5, 1161.7, 
1161.8, 1161.9, 1162.1, 1162.2, 1162.3, 1162.5, 1162.6, 1162.7, 1162.9, 1163.0, 1163.1, 1163.3, 
1163.4, 1163.5, 1163.7, 1163.8, 1163.9, 1164.1, 1164.2, 1164.3, 1164.5, 1164.6, 1164.7, 1164.9, 
1165.0, 1165.1, 1165.3, 1165.4, 1165.5, 1165.7, 1165.8, 1165.9, 1166.1, 1166.2, 1166.3, 1166.5, 
1166.6, 1166.7, 1166.9, 1167.0, 1167.1, 1167.3, 1167.4, 1167.5, 1167.7, 1167.8, 1167.9, 1168.1, 
1168.2, 1168.3, 1168.5, 1168.6, 1168.7, 1168.9, 1169.0, 1169.1, 1169.3, 1169.4, 1169.5, 1169.7, 
1169.8, 1169.9, 1170.1, 1170.2, 1170.3, 1170.5, 1170.6, 1170.7, 1170.9, 1171.0, 1171.1, 1171.3, 
1171.4, 1171.5, 1171.7, 1171.8, 1171.9, 1172.1, 1172.2, 1172.3, 1172.5, 1172.6, 1172.7, 1172.9, 
1173.0, 1173.1, 1173.3, 1173.4, 1173.5, 1173.7, 1173.8, 1173.9, 1174.1, 1174.2, 1174.3, 1174.5, 
1174.6, 1174.7, 1174.9, 1175.0, 1175.1, 1175.3, 1175.4, 1175.6, 1175.7, 1175.8, 1176.0, 1176.1, 
1176.2, 1176.4, 1176.5, 1176.6, 1176.8, 1176.9, 1177.0, 1177.2, 1177.3, 1177.4, 1177.6, 1177.7, 
1177.8, 1178.0, 1178.1, 1178.2, 1178.4, 1178.5, 1178.6, 1178.8, 1178.9, 1179.0, 1179.2, 1179.3, 
1179.4, 1179.6, 1179.7, 1179.8, 1180.0, 1180.1, 1180.2, 1180.4, 1180.5, 1180.6, 1180.8, 1180.9, 
1181.0, 1181.2, 1181.3, 1181.4, 1181.6, 1181.7, 1181.8, 1182.0, 1182.1, 1182.2, 1182.4, 1182.5, 
1182.6, 1182.8, 1182.9, 1183.0, 1183.2, 1183.3, 1183.4, 1183.6, 1183.7, 1183.8, 1184.0, 1184.1, 
1184.3, 1184.4, 1184.5, 1184.7, 1184.8, 1184.9, 1185.1, 1185.2, 1185.3, 1185.5, 1185.6, 1185.7, 
1185.9, 1186.0, 1186.1, 1186.3, 1186.4, 1186.5, 1186.7, 1186.8, 1186.9, 1187.1, 1187.2, 1187.3, 
1187.5, 1187.6, 1187.7, 1187.9, 1188.0, 1188.1, 1188.3, 1188.4, 1188.5, 1188.7, 1188.8, 1188.9, 
1189.1, 1189.2, 1189.3, 1189.5, 1189.6, 1189.7, 1189.9, 1190.0, 1190.2, 1190.3, 1190.4, 1190.6, 
1190.7, 1190.8, 1191.0, 1191.1, 1191.2, 1191.4, 1191.5, 1191.6, 1191.8, 1191.9, 1192.0, 1192.2, 
1192.3, 1192.4, 1192.6, 1192.7, 1192.8, 1193.0, 1193.1, 1193.2, 1193.4, 1193.5, 1193.6, 1193.8, 
1193.9, 1194.0, 1194.2, 1194.3, 1194.4, 1194.6, 1194.7, 1194.9, 1195.0, 1195.1, 1195.3, 1195.4, 
1195.5, 1195.7, 1195.8, 1195.9, 1196.1, 1196.2, 1196.3, 1196.5, 1196.6, 1196.7, 1196.9, 1197.0, 
1197.1, 1197.3, 1197.4, 1197.5, 1197.7, 1197.8, 1197.9, 1198.1, 1198.2, 1198.3, 1198.5, 1198.6, 
1198.7, 1198.9, 1199.0, 1199.2, 1199.3, 1199.4, 1199.6, 1199.7, 1199.8, 1200.0, 1200.1, 1200.2, 
1200.4, 1200.5, 1200.6, 1200.8, 1200.9, 1201.0, 1201.2, 1201.3, 1201.4, 1201.6, 1201.7, 1201.8, 
1202.0, 1202.1, 1202.2, 1202.4, 1202.5, 1202.7, 1202.8, 1202.9, 1203.1, 1203.2, 1203.3, 1203.5, 
1203.6, 1203.7, 1203.9, 1204.0, 1204.1, 1204.3, 1204.4, 1204.5, 1204.7, 1204.8, 1204.9, 1205.1, 
1205.2, 1205.3, 1205.5, 1205.6, 1205.7, 1205.9, 1206.0, 1206.2, 1206.3, 1206.4, 1206.6, 1206.7, 
1206.8, 1207.0, 1207.1, 1207.2, 1207.4, 1207.5, 1207.6, 1207.8, 1207.9, 1208.0, 1208.2, 1208.3, 
1208.4, 1208.6, 1208.7, 1208.8, 1209.0, 1209.1, 1209.3, 1209.4, 1209.5, 1209.7, 1209.8, 1209.9, 
1210.1, 1210.2, 1210.3, 1210.5, 1210.6, 1210.7, 1210.9, 1211.0, 1211.1, 1211.3, 1211.4, 1211.5, 
1211.7, 1211.8, 1211.9, 1212.1, 1212.2, 1212.4, 1212.5, 1212.6, 1212.8, 1212.9, 1213.0, 1213.2, 
1213.3, 1213.4, 1213.6, 1213.7, 1213.8, 1214.0, 1214.1, 1214.2, 1214.4, 1214.5, 1214.6, 1214.8, 
1214.9, 1215.1, 1215.2, 1215.3, 1215.5, 1215.6, 1215.7, 1215.9, 1216.0, 1216.1, 1216.3, 1216.4, 
1216.5, 1216.7, 1216.8, 1216.9, 1217.1, 1217.2, 1217.3, 1217.5, 1217.6, 1217.8, 1217.9, 1218.0, 
1218.2, 1218.3, 1218.4, 1218.6, 1218.7, 1218.8, 1219.0, 1219.1, 1219.2, 1219.4, 1219.5, 1219.6, 
1219.8, 1219.9, 1220.1, 1220.2, 1220.3, 1220.5, 1220.6, 1220.7, 1220.9, 1221.0, 1221.1, 1221.3, 
1221.4, 1221.5, 1221.7, 1221.8, 1221.9, 1222.1, 1222.2, 1222.4, 1222.5, 1222.6, 1222.8, 1222.9, 
1223.0, 1223.2, 1223.3, 1223.4, 1223.6, 1223.7, 1223.8, 1224.0, 1224.1, 1224.2, 1224.4, 1224.5, 
1224.7, 1224.8, 1224.9, 1225.1, 1225.2, 1225.3, 1225.5, 1225.6, 1225.7, 1225.9, 1226.0, 1226.1, 
1226.3, 1226.4, 1226.5, 1226.7, 1226.8, 1227.0, 1227.1, 1227.2, 1227.4, 1227.5, 1227.6, 1227.8, 
1227.9, 1228.0, 1228.2, 1228.3, 1228.4, 1228.6, 1228.7, 1228.8, 1229.0, 1229.1, 1229.3, 1229.4, 
1229.5, 1229.7, 1229.8, 1229.9, 1230.1, 1230.2, 1230.3, 1230.5, 1230.6, 1230.7, 1230.9, 1231.0, 
1231.2, 1231.3, 1231.4, 1231.6, 1231.7, 1231.8, 1232.0, 1232.1, 1232.2, 1232.4, 1232.5, 1232.6, 
1232.8, 1232.9, 1233.1, 1233.2, 1233.3, 1233.5, 1233.6, 1233.7, 1233.9, 1234.0, 1234.1, 1234.3, 
1234.4, 1234.5, 1234.7, 1234.8, 1235.0, 1235.1, 1235.2, 1235.4, 1235.5, 1235.6, 1235.8, 1235.9, 
1236.0, 1236.2, 1236.3, 1236.4, 1236.6, 1236.7, 1236.9, 1237.0, 1237.1, 1237.3, 1237.4, 1237.5, 
1237.7, 1237.8, 1237.9, 1238.1, 1238.2, 1238.3, 1238.5, 1238.6, 1238.8, 1238.9, 1239.0, 1239.2, 
1239.3, 1239.4, 1239.6, 1239.7, 1239.8, 1240.0, 1240.1, 1240.2, 1240.4, 1240.5, 1240.7, 1240.8, 
1240.9, 1241.1, 1241.2, 1241.3, 1241.5, 1241.6, 1241.7, 1241.9, 1242.0, 1242.2, 1242.3, 1242.4, 
1242.6, 1242.7, 1242.8, 1243.0, 1243.1, 1243.2, 1243.4, 1243.5, 1243.6, 1243.8, 1243.9, 1244.1, 
1244.2, 1244.3, 1244.5, 1244.6, 1244.7, 1244.9, 1245.0, 1245.1, 1245.3, 1245.4, 1245.6, 1245.7, 
1245.8, 1246.0, 1246.1, 1246.2, 1246.4, 1246.5, 1246.6, 1246.8, 1246.9, 1247.1, 1247.2, 1247.3, 
1247.5, 1247.6, 1247.7, 1247.9, 1248.0, 1248.1, 1248.3, 1248.4, 1248.6, 1248.7, 1248.8, 1249.0, 
1249.1, 1249.2, 1249.4, 1249.5, 1249.6, 1249.8, 1249.9, 1250.0, 1250.2, 1250.3, 1250.5, 1250.6, 
1250.7, 1250.9, 1251.0, 1251.1, 1251.3, 1251.4, 1251.5, 1251.7, 1251.8, 1252.0, 1252.1, 1252.2, 
1252.4, 1252.5, 1252.6, 1252.8, 1252.9, 1253.0, 1253.2, 1253.3, 1253.5, 1253.6, 1253.7, 1253.9, 
1254.0, 1254.1, 1254.3, 1254.4, 1254.6, 1254.7, 1254.8, 1255.0, 1255.1, 1255.2, 1255.4, 1255.5, 
1255.6, 1255.8, 1255.9, 1256.1, 1256.2, 1256.3, 1256.5, 1256.6, 1256.7, 1256.9, 1257.0, 1257.1, 
1257.3, 1257.4, 1257.6, 1257.7, 1257.8, 1258.0, 1258.1, 1258.2, 1258.4, 1258.5, 1258.6, 1258.8, 
1258.9, 1259.1, 1259.2, 1259.3, 1259.5, 1259.6, 1259.7, 1259.9, 1260.0, 1260.1, 1260.3, 1260.4, 
1260.6, 1260.7, 1260.8, 1261.0, 1261.1, 1261.2, 1261.4, 1261.5, 1261.7, 1261.8, 1261.9, 1262.1, 
1262.2, 1262.3, 1262.5, 1262.6, 1262.7, 1262.9, 1263.0, 1263.2, 1263.3, 1263.4, 1263.6, 1263.7, 
1263.8, 1264.0, 1264.1, 1264.3, 1264.4, 1264.5, 1264.7, 1264.8, 1264.9, 1265.1, 1265.2, 1265.3, 
1265.5, 1265.6, 1265.8, 1265.9, 1266.0, 1266.2, 1266.3, 1266.4, 1266.6, 1266.7, 1266.9, 1267.0, 
1267.1, 1267.3, 1267.4, 1267.5, 1267.7, 1267.8, 1267.9, 1268.1, 1268.2, 1268.4, 1268.5, 1268.6, 
1268.8, 1268.9, 1269.0, 1269.2, 1269.3, 1269.5, 1269.6, 1269.7, 1269.9, 1270.0, 1270.1, 1270.3, 
1270.4, 1270.6, 1270.7, 1270.8, 1271.0, 1271.1, 1271.2, 1271.4, 1271.5, 1271.7, 1271.8, 1271.9, 
1272.1, 1272.2, 1272.3, 1272.5, 1272.6, 1272.7, 1272.9, 1273.0, 1273.2, 1273.3, 1273.4, 1273.6, 
1273.7, 1273.8, 1274.0, 1274.1, 1274.3, 1274.4, 1274.5, 1274.7, 1274.8, 1274.9, 1275.1, 1275.2, 
1275.4, 1275.5, 1275.6, 1275.8, 1275.9, 1276.0, 1276.2, 1276.3, 1276.5, 1276.6, 1276.7, 1276.9, 
1277.0, 1277.1, 1277.3, 1277.4, 1277.6, 1277.7, 1277.8, 1278.0, 1278.1, 1278.2, 1278.4, 1278.5, 
1278.7, 1278.8, 1278.9, 1279.1, 1279.2, 1279.3, 1279.5, 1279.6, 1279.8, 1279.9, 1280.0, 1280.2, 
1280.3, 1280.4, 1280.6, 1280.7, 1280.9, 1281.0, 1281.1, 1281.3, 1281.4, 1281.5, 1281.7, 1281.8, 
1282.0, 1282.1, 1282.2, 1282.4, 1282.5, 1282.6, 1282.8, 1282.9, 1283.1, 1283.2, 1283.3, 1283.5, 
1283.6, 1283.7, 1283.9, 1284.0, 1284.2, 1284.3, 1284.4, 1284.6, 1284.7, 1284.8, 1285.0, 1285.1, 
1285.3, 1285.4, 1285.5, 1285.7, 1285.8, 1285.9, 1286.1, 1286.2, 1286.4, 1286.5, 1286.6, 1286.8, 
1286.9, 1287.0, 1287.2, 1287.3, 1287.5, 1287.6, 1287.7, 1287.9, 1288.0, 1288.1, 1288.3, 1288.4, 
1288.6, 1288.7, 1288.8, 1289.0, 1289.1, 1289.3, 1289.4, 1289.5, 1289.7, 1289.8, 1289.9, 1290.1, 
1290.2, 1290.4, 1290.5, 1290.6, 1290.8, 1290.9, 1291.0, 1291.2, 1291.3, 1291.5, 1291.6, 1291.7, 
1291.9, 1292.0, 1292.1, 1292.3, 1292.4, 1292.6, 1292.7, 1292.8, 1293.0, 1293.1, 1293.3, 1293.4, 
1293.5, 1293.7, 1293.8, 1293.9, 1294.1, 1294.2, 1294.4, 1294.5, 1294.6, 1294.8, 1294.9, 1295.0, 
1295.2, 1295.3, 1295.5, 1295.6, 1295.7, 1295.9, 1296.0, 1296.2, 1296.3, 1296.4, 1296.6, 1296.7, 
1296.8, 1297.0, 1297.1, 1297.3, 1297.4, 1297.5, 1297.7, 1297.8, 1297.9, 1298.1, 1298.2, 1298.4, 
1298.5, 1298.6, 1298.8, 1298.9, 1299.1, 1299.2, 1299.3, 1299.5, 1299.6, 1299.7, 1299.9, 1300.0, 
1300.0, 1300.0, 1300.0, 1300.0,]